Asteroid designations ( Number, Name, Temporary designation): 138883, -, 2000_YL29
Observation was done on (UT) (format YYYY-MM-DD-hh): 2007 - 07 - 15 - 00:00
Observation was made by : Simone Ieva E-mail; simone.ieva@obspm.fr
At observatory with UAI code: 950
Obsv. comments: Ieva et al. (2013) in preparation
The spectrum was published in the article: http://www.oa-roma.inaf.it/planet/NEOSURFACE.html
The normalization of this spectrum was made for the wavelength: 1.250 microns.
Original name of the file was: YL29.txt
Wavelength[um]	Reflectance	sigma(optional)
0.9009 0.82616
0.9049 0.83213
0.9088 0.83213
0.9128 0.83051
0.9169 0.83051
0.9210 0.78807
0.9252 0.87362
0.9293 0.86936
0.9336 0.78768
0.9379 0.82156
0.9423 0.87144
0.9467 0.86594
0.9511 0.90729
0.9557 0.83051
0.9603 0.88748
0.9649 0.82151
0.9696 0.87758
0.9743 0.85424
0.9791 0.84606
0.9840 0.85946
0.9889 0.82727
0.9939 0.90303
0.9989 0.92285
1.0040 0.86661
1.0092 0.89389
1.0144 0.84334
1.0197 0.89776
1.0251 0.88602
1.0305 0.89241
1.0360 0.88450
1.0416 0.87233
1.0472 0.85568
1.0529 0.90804
1.0587 0.83346
1.0645 0.89780
1.0704 0.87840
1.0764 0.83688
1.0825 0.89241
1.0886 0.89780
1.0948 0.90804
1.1011 0.91101
1.1074 0.92679
1.1138 0.93359
1.1203 0.93762
1.1269 0.96968
1.1336 0.96185
1.1403 0.96185
1.1471 1.01188
1.1540 0.98146
1.1609 0.99945
1.1680 0.96819
1.1751 1.00041
1.1823 1.00293
1.1896 1.02705
1.1969 1.07297
1.2043 0.99930
1.2119 1.04925
1.2194 1.03670
1.2271 0.92602
1.2349 1.04360
1.2427 1.06976
1.2506 1.00000
1.2585 1.04410
1.2666 1.01529
1.2747 1.03059
1.2829 1.03059
1.2912 1.03670
1.2996 1.03670
1.3080 1.03178
1.3165 1.04360
1.3251 1.04410
1.3337 1.03178
1.3424 1.04410
1.3512 1.05348
1.3601 1.07708
1.3690 1.12062
1.3780 1.12062
1.3870 1.18488
1.3962 1.14793
1.4053 1.13774
1.4146 1.05348
1.4239 1.07708
1.4332 1.20342
1.4426 1.14030
1.4521 1.24749
1.4616 1.17944
1.4712 1.14793
1.4808 1.14030
1.4905 1.07570
1.5002 1.12469
1.5099 1.15310
1.5197 1.13807
1.5296 1.17978
1.5395 1.11061
1.5494 1.13651
1.5594 1.20512
1.5693 1.09760
1.5794 1.15241
1.5894 1.16926
1.5995 1.14724
1.6097 1.16978
1.6198 1.19778
1.6299 1.14863
1.6401 1.04002
1.6503 1.04368
1.6606 1.15983
1.6708 1.12474
1.6811 1.07883
1.6913 1.05025
1.7016 0.98564
1.7119 0.97326
1.7223 1.07322
1.7325 1.05025
1.7429 0.94828
1.7532 0.95561
1.7635 1.05025
1.7738 1.05025
1.7842 0.98564
1.7945 0.97326
1.8049 0.97326
1.8152 0.97326
1.8255 1.07322
1.8358 1.00799
1.8462 1.03013
1.8565 1.00799
1.8668 1.03013
1.8771 1.03013
1.8874 1.09454
1.8977 1.09454
1.9079 1.00799
1.9182 1.00799
1.9284 1.00799
1.9386 1.03013
1.9488 1.09224
1.9590 0.99110
1.9692 1.09224
1.9794 1.03013
1.9895 1.03013
1.9996 1.03013
2.0097 1.07011
2.0198 1.03013
2.0299 1.09224
2.0399 1.02645
2.0499 0.99110
2.0599 1.02645
2.0699 1.00362
2.0799 1.02645
2.0898 1.07011
2.0997 0.96786
2.1096 1.00362
