Asteroid designations ( Number, Name, Temporary designation): 22099, -,  K00EA6X, 1994 BX4, J94B04X
Observation was done on (UT) (format YYYY-MM-DD-hh): 2015 - 03 - 11 - 04:35
Observation was made by : O. Vaduvescu, F. Lopez E-mail; ovidiu.vaduvescu@gmail.com
At observatory with UAI code: 950
Obsv. comments: If this spectrum is usefull for you please contact: ovidiu.vaduvescu@gmail.com; mpopescu@imcce.fr
The spectrum was published in the article: Unpublished;Contact:mpopescu@imcce.fr
The normalization of this spectrum was made for the wavelength: 0.550 microns.
Original name of the file was: 22099vshd98562.txt
Wavelength[um]	Reflectance	sigma(optional)
0.4013000 0.81493 0.05029
0.4034000 0.86200 0.04645
0.4058000 0.76976 0.04565
0.4078000 0.83193 0.04519
0.4097000 0.83876 0.04374
0.4114000 0.85878 0.04038
0.4136000 0.79159 0.03804
0.4155000 0.81633 0.03688
0.4171000 0.86964 0.03808
0.4187000 0.82730 0.03672
0.4204000 0.78767 0.03500
0.4220000 0.78978 0.03409
0.4236000 0.82157 0.03404
0.4252000 0.79883 0.03670
0.4269000 0.84108 0.03197
0.4289000 0.84178 0.03490
0.4309000 0.90404 0.03702
0.4326000 0.81694 0.03127
0.4342000 0.84822 0.03163
0.4358000 0.84611 0.02699
0.4374000 0.82338 0.02792
0.4391000 0.85295 0.02965
0.4407000 0.88684 0.02875
0.4423000 0.83203 0.02529
0.4439000 0.83052 0.02558
0.4456000 0.86190 0.02549
0.4472000 0.84701 0.02428
0.4488000 0.88423 0.02270
0.4504000 0.85335 0.02185
0.4521000 0.78415 0.02362
0.4537000 0.91642 0.02311
0.4553000 0.87960 0.02249
0.4570000 0.83846 0.02240
0.4586000 0.85043 0.02046
0.4602000 0.89268 0.02191
0.4618000 0.84581 0.01931
0.4635000 0.89580 0.02070
0.4651000 0.90595 0.02001
0.4667000 0.84782 0.02081
0.4683000 0.89449 0.01999
0.4700000 0.87035 0.02038
0.4716000 0.87326 0.01920
0.4732000 0.83122 0.01899
0.4749000 0.94136 0.01826
0.4765000 0.85204 0.01829
0.4781000 0.92959 0.01790
0.4797000 0.90153 0.01729
0.4814000 0.89449 0.01711
0.4830000 0.91209 0.01812
0.4846000 0.89288 0.01839
0.4863000 0.92507 0.01974
0.4879000 0.92758 0.01737
0.4895000 0.91440 0.01730
0.4911000 0.90867 0.01753
0.4928000 0.93714 0.01658
0.4944000 0.98230 0.01632
0.4960000 0.94629 0.01716
0.4977000 0.92849 0.01690
0.4993000 0.94267 0.01612
0.5009000 0.92818 0.01678
0.5026000 0.94558 0.01562
0.5042000 0.92909 0.01613
0.5058000 0.94408 0.01536
0.5074000 0.91471 0.01550
0.5091000 0.94921 0.01584
0.5107000 0.96972 0.01429
0.5123000 0.90545 0.01580
0.5140000 0.98612 0.01585
0.5156000 0.92074 0.01583
0.5172000 0.97958 0.01720
0.5189000 0.99618 0.01636
0.5205000 0.97998 0.01592
0.5221000 0.96449 0.01565
0.5238000 0.99728 0.01510
0.5254000 0.98672 0.01522
0.5270000 0.99557 0.01487
0.5287000 0.97184 0.01384
0.5303000 1.00282 0.01438
0.5319000 0.97033 0.01429
0.5336000 0.99155 0.01431
0.5352000 0.99970 0.01385
0.5368000 0.95625 0.01369
0.5384000 0.99990 0.01458
0.5401000 0.98290 0.01476
0.5417000 0.99376 0.01401
0.5433000 0.95725 0.01353
0.5450000 0.99940 0.01369
0.5466000 1.01519 0.01304
0.5482000 0.97837 0.01424
0.5499000 1.00000 0.01364
0.5515000 0.99557 0.01312
0.5531000 1.03309 0.01389
0.5548000 1.02706 0.01392
0.5564000 1.04697 0.01901
0.5580000 0.97677 0.02935
0.5597000 0.98340 0.01406
0.5613000 1.02967 0.01333
0.5630000 0.99457 0.01327
0.5646000 1.02816 0.01450
0.5662000 1.02323 0.01338
0.5679000 1.01006 0.01339
0.5695000 0.97968 0.01380
0.5711000 0.98894 0.01395
0.5728000 1.00553 0.01325
0.5744000 1.03933 0.01276
0.5760000 1.01981 0.01369
0.5777000 1.00473 0.01303
0.5793000 1.01971 0.01324
0.5809000 1.02535 0.01222
0.5826000 1.02132 0.01238
0.5842000 1.02183 0.01311
0.5858000 1.02092 0.01364
0.5875000 1.01549 0.01367
0.5891000 1.00935 0.02344
0.5907000 1.04587 0.01488
0.5924000 1.04908 0.01318
0.5940000 1.03209 0.01266
0.5957000 0.99618 0.01307
0.5973000 1.07544 0.01308
0.5989000 0.99789 0.01346
0.6006000 1.02515 0.01270
0.6022000 1.03862 0.01257
0.6038000 1.02756 0.01224
0.6055000 1.03651 0.01300
0.6071000 1.07282 0.01293
0.6087000 1.02836 0.01242
0.6104000 1.03581 0.01235
0.6120000 1.06980 0.01287
0.6137000 1.06980 0.01304
0.6153000 1.03018 0.01250
0.6169000 1.03712 0.01363
0.6186000 1.04295 0.01271
0.6202000 1.04577 0.01290
0.6218000 1.06820 0.01253
0.6235000 1.07172 0.01510
0.6251000 1.06639 0.01391
0.6268000 1.07141 0.01377
0.6284000 1.05965 0.01415
0.6300000 1.03530 0.02136
0.6317000 1.05452 0.01413
0.6333000 1.06739 0.01393
0.6350000 1.08338 0.01439
0.6366000 1.09083 0.01571
0.6382000 1.09525 0.01314
0.6399000 1.06970 0.01315
0.6415000 1.12191 0.01247
0.6432000 1.09716 0.01185
0.6448000 1.08620 0.01205
0.6464000 1.09425 0.01310
0.6481000 1.08248 0.01286
0.6497000 1.08419 0.01471
0.6513000 1.11617 0.01328
0.6530000 1.11175 0.01370
0.6546000 1.06980 0.03708
0.6563000 1.09384 0.06046
0.6579000 1.11768 0.01262
0.6595000 1.11285 0.01246
0.6612000 1.10260 0.01284
0.6628000 1.11979 0.01312
0.6645000 1.07282 0.01281
0.6661000 1.14273 0.01331
0.6678000 1.08389 0.01261
0.6694000 1.10119 0.01242
0.6710000 1.07725 0.01304
0.6727000 1.14746 0.01241
0.6743000 1.12543 0.01233
0.6760000 1.10642 0.01226
0.6776000 1.08057 0.01338
0.6792000 1.13207 0.01192
0.6809000 1.14142 0.01192
0.6825000 1.12332 0.01432
0.6842000 1.16083 0.01418
0.6858000 1.10682 0.01551
0.6875000 1.12472 0.01667
0.6891000 1.14082 0.01473
0.6907000 1.14132 0.01453
0.6924000 1.08037 0.01510
0.6940000 1.09747 0.01495
0.6957000 1.10923 0.01457
0.6973000 1.14906 0.01396
0.6989000 1.14886 0.01323
0.7006000 1.13378 0.01368
0.7022000 1.14293 0.01413
0.7039000 1.19584 0.01457
0.7055000 1.13941 0.01408
0.7072000 1.16697 0.01228
0.7088000 1.14323 0.01371
0.7105000 1.11889 0.01390
0.7121000 1.11547 0.01470
0.7137000 1.14303 0.01441
0.7154000 1.14474 0.01386
0.7170000 1.11919 0.01509
0.7187000 1.10722 0.01404
0.7203000 1.14001 0.01465
0.7220000 1.14544 0.01381
0.7236000 1.09364 0.02007
0.7252000 1.11446 0.01882
0.7269000 1.12905 0.01911
0.7285000 1.11004 0.01904
0.7302000 1.14373 0.01677
0.7318000 1.07081 0.01930
0.7335000 1.11879 0.02108
0.7351000 1.13508 0.01791
0.7368000 1.09133 0.01985
0.7384000 1.09777 0.01555
0.7401000 1.17180 0.02163
0.7417000 1.12412 0.01532
0.7433000 1.13981 0.01711
0.7450000 1.13368 0.01566
0.7466000 1.16536 0.01713
0.7483000 1.12140 0.01736
0.7499000 1.17230 0.01581
0.7516000 1.12553 0.01715
0.7532000 1.14564 0.01759
0.7549000 1.08469 0.01612
0.7565000 1.13931 0.01714
0.7582000 1.15731 0.01835
0.7598000 1.08107 0.03464
0.7615000 1.11406 0.02907
0.7631000 1.06286 0.02746
0.7647000 1.07021 0.02143
0.7664000 1.17009 0.02006
0.7680000 1.18286 0.01708
0.7697000 1.11658 0.01804
0.7713000 1.15440 0.02793
0.7730000 1.09173 0.01995
0.7746000 1.15862 0.02531
0.7763000 1.12110 0.02368
0.7779000 1.10943 0.02222
0.7796000 1.09726 0.02442
0.7812000 1.12553 0.02460
0.7829000 1.16164 0.02443
0.7845000 1.16868 0.02612
0.7862000 1.13619 0.02918
0.7878000 1.09384 0.02601
0.7895000 1.10229 0.02326
0.7911000 1.05633 0.02952
0.7928000 1.07061 0.02702
0.7944000 1.10461 0.02175
0.7961000 1.08640 0.02434
0.7977000 1.02142 0.02753
0.7994000 1.08177 0.02833
0.8010000 1.09958 0.02212
0.8027000 1.10410 0.02749
0.8043000 1.08157 0.01999
0.8060000 1.04124 0.02435
0.8076000 1.07272 0.02336
0.8093000 1.06437 0.02237
0.8109000 1.11990 0.02386
0.8126000 1.08037 0.02535
0.8142000 1.04315 0.02684
0.8159000 1.04325 0.02833
0.8175000 1.06437 0.02982
0.8192000 1.11205 0.03132
0.8208000 1.07493 0.03281
0.8225000 1.05180 0.03430
0.8241000 1.08670 0.03579
0.8258000 1.01127 0.03728
0.8274000 1.01207 0.03877
0.8291000 1.12523 0.04026
0.8307000 1.01811 0.03125
0.8324000 1.05371 0.03641
0.8342000 0.97606 0.04158
0.8361000 1.10451 0.03926
0.8377000 1.04748 0.03694
0.8394000 1.09133 0.03462
0.8410000 1.08429 0.03334
0.8427000 1.08027 0.03930
0.8443000 1.03832 0.03162
0.8460000 1.05130 0.03568
0.8476000 1.04597 0.02737
0.8493000 1.01790 0.03038
0.8509000 1.04225 0.02984
0.8526000 0.92577 0.02240
0.8543000 1.04828 0.03482
0.8559000 0.94669 0.02478
0.8576000 1.00382 0.02099
0.8592000 1.00513 0.02498
0.8609000 0.99960 0.02752
0.8625000 0.92929 0.04386
0.8642000 0.99648 0.03904
0.8658000 0.98109 0.04630
0.8675000 0.95403 0.04076
0.8691000 0.92919 0.03024
0.8708000 0.94438 0.02461
0.8724000 1.00262 0.02346
0.8741000 0.94367 0.02355
0.8757000 0.97516 0.04167
0.8774000 0.94709 0.05104
0.8791000 0.92798 0.03583
0.8807000 0.98833 0.02406
0.8824000 1.01096 0.04935
0.8840000 0.90445 0.04735
0.8857000 0.94025 0.03016
0.8873000 0.96379 0.03901
0.8893000 0.87105 0.04367
0.8911000 1.00473 0.04258
0.8927000 0.90817 0.04700
0.8944000 0.96178 0.03556
0.8960000 0.95675 0.05105
0.8977000 0.86049 0.02718
0.8993000 0.92999 0.04264
0.9010000 0.95202 0.03937
0.9026000 1.01036 0.02708
0.9043000 0.92587 0.03531
0.9060000 0.90978 0.03268
0.9076000 0.92838 0.02727
0.9093000 0.96168 0.03478
0.9109000 0.94619 0.02900
0.9126000 0.94830 0.02472
0.9142000 0.88594 0.02508
0.9159000 0.91108 0.03139
0.9175000 0.94367 0.03770
0.9192000 0.93231 0.04401
