Asteroid designations ( Number, Name, Temporary designation): 112985, -,  K02R28S
Observation was done on (UT) (format YYYY-MM-DD-hh): 2015 - 05 - 27 - 02:45
Observation was made by : M. Popescu, I. Ordonez E-mail; mpopescu@imcce.fr
At observatory with UAI code: 950
Obsv. comments: 
The spectrum was published in the article: Unpublished;Contact:mpopescu@imcce.fr
The normalization of this spectrum was made for the wavelength: 0.550 microns.
Original name of the file was: 112985vshd142011.txt
Wavelength[um]	Reflectance	sigma(optional)
0.4510000 1.01843 0.01701
0.4526000 0.99058 0.01954
0.4542000 1.00931 0.01804
0.4558000 1.02183 0.02190
0.4575000 0.96534 0.01978
0.4591000 0.95683 0.01788
0.4607000 0.97386 0.01650
0.4623000 1.02674 0.01564
0.4640000 0.97095 0.01491
0.4656000 0.94922 0.01544
0.4672000 0.98968 0.01549
0.4688000 0.95964 0.01559
0.4705000 0.96605 0.01496
0.4721000 0.97987 0.01440
0.4737000 0.99299 0.01392
0.4753000 0.97015 0.01385
0.4769000 0.99770 0.01364
0.4786000 1.01723 0.01412
0.4802000 1.00331 0.01327
0.4818000 0.97676 0.01303
0.4834000 0.93950 0.01346
0.4851000 0.93580 0.01416
0.4867000 1.00491 0.01499
0.4883000 0.96354 0.01378
0.4899000 1.00030 0.01266
0.4916000 0.97957 0.01341
0.4932000 0.99018 0.01280
0.4948000 0.98858 0.01226
0.4964000 1.00050 0.01209
0.4981000 0.99740 0.01308
0.4997000 0.98247 0.01279
0.5013000 0.96765 0.01229
0.5029000 0.98468 0.01274
0.5046000 1.00381 0.01114
0.5062000 0.97696 0.01143
0.5078000 1.00210 0.01131
0.5095000 0.96364 0.01146
0.5111000 0.98277 0.01096
0.5127000 0.97706 0.01113
0.5143000 0.97306 0.01113
0.5160000 0.92177 0.01124
0.5176000 0.99028 0.01189
0.5192000 0.98898 0.01202
0.5208000 0.96985 0.01184
0.5225000 0.98858 0.01127
0.5241000 0.96524 0.01155
0.5257000 0.95162 0.01143
0.5274000 0.99018 0.01115
0.5290000 0.99319 0.01025
0.5306000 1.02274 0.01049
0.5322000 0.98317 0.01114
0.5339000 0.99549 0.01064
0.5355000 1.02113 0.01031
0.5371000 1.02965 0.01084
0.5388000 0.99760 0.00993
0.5412000 0.98377 0.01012
0.5428000 0.99649 0.01027
0.5445000 1.01763 0.01018
0.5461000 0.98598 0.01041
0.5477000 1.02304 0.01016
0.5493000 1.00000 0.01032
0.5510000 0.99099 0.01028
0.5526000 1.01062 0.01053
0.5542000 0.98117 0.01043
0.5559000 0.94832 0.01335
0.5575000 0.89683 0.03540
0.5591000 0.99309 0.01257
0.5608000 0.97566 0.01041
0.5624000 1.00451 0.01100
0.5640000 1.00200 0.01099
0.5657000 1.02554 0.01098
0.5673000 1.02284 0.01097
0.5689000 1.00331 0.01086
0.5705000 0.99179 0.01042
0.5722000 0.99669 0.01026
0.5738000 1.00501 0.00956
0.5754000 1.01332 0.00975
0.5771000 0.99018 0.00988
0.5787000 1.01743 0.01046
0.5803000 1.02604 0.00981
0.5820000 1.00130 0.01001
0.5836000 0.99549 0.00945
0.5852000 1.01843 0.01038
0.5869000 1.00631 0.01030
0.5885000 1.03345 0.01859
0.5901000 1.01953 0.01427
0.5918000 0.98137 0.01091
0.5934000 0.98938 0.01002
0.5950000 0.97686 0.01104
0.5967000 1.01282 0.01017
0.5983000 0.99249 0.00999
0.5999000 1.04397 0.01014
0.6016000 0.99569 0.01033
0.6032000 1.02444 0.00981
0.6048000 1.01953 0.00957
0.6065000 1.02694 0.01015
0.6081000 1.01833 0.00965
0.6097000 1.03305 0.01072
0.6114000 1.02364 0.01026
0.6130000 1.01092 0.01035
0.6146000 1.01923 0.01101
0.6163000 0.98438 0.01112
0.6179000 1.03826 0.01009
0.6195000 1.02093 0.00978
0.6212000 1.04838 0.01018
0.6228000 1.04457 0.01123
0.6245000 1.06420 0.01546
0.6261000 1.02113 0.01969
0.6277000 1.04447 0.02393
0.6294000 1.00952 0.01842
0.6310000 1.01292 0.01292
0.6326000 1.04818 0.01127
0.6343000 1.05278 0.01132
0.6359000 1.04207 0.01310
0.6375000 1.03446 0.01110
0.6392000 1.04487 0.01103
0.6408000 1.07051 0.01042
0.6425000 1.06090 0.01068
0.6441000 1.04036 0.01018
0.6457000 1.04277 0.01185
0.6474000 1.04477 0.01094
0.6490000 1.07482 0.01167
0.6506000 1.07111 0.01154
0.6523000 1.09165 0.01189
0.6539000 1.09245 0.01187
0.6556000 1.08964 0.01435
0.6572000 1.11528 0.01318
0.6588000 1.05208 0.01135
0.6605000 1.04918 0.01116
0.6621000 1.04898 0.01098
0.6638000 1.08303 0.01100
0.6654000 1.09195 0.01063
0.6670000 1.09165 0.01123
0.6687000 1.11228 0.01106
0.6703000 1.10847 0.01164
0.6720000 1.10837 0.01123
0.6736000 1.09996 0.01125
0.6752000 1.07352 0.01102
0.6769000 1.08874 0.01160
0.6785000 1.07913 0.01150
0.6802000 1.09075 0.01212
0.6818000 1.11639 0.01251
0.6834000 1.09105 0.01423
0.6851000 1.07662 0.01236
0.6867000 1.05058 0.01608
0.6884000 1.09105 0.01334
0.6900000 1.09846 0.01400
0.6916000 1.11308 0.01480
0.6933000 1.10837 0.01369
0.6949000 1.09325 0.01439
0.6966000 1.10417 0.01272
0.6982000 1.10847 0.01311
0.6998000 1.10457 0.01198
0.7015000 1.12570 0.01327
0.7031000 1.10777 0.01259
0.7048000 1.09014 0.01286
0.7064000 1.07802 0.01251
0.7081000 1.09826 0.01268
0.7097000 1.09665 0.01271
0.7113000 1.11198 0.01296
0.7130000 1.11388 0.01276
0.7146000 1.09886 0.01389
0.7163000 1.09836 0.01435
0.7179000 1.05018 0.01366
0.7196000 1.10767 0.01360
0.7212000 1.09876 0.01411
0.7228000 1.09796 0.01656
0.7245000 1.08243 0.02064
0.7261000 1.09435 0.01545
0.7278000 1.06931 0.02115
0.7294000 1.10517 0.01752
0.7311000 1.10236 0.01902
0.7327000 1.05990 0.01790
0.7344000 1.09836 0.01869
0.7360000 1.09415 0.01910
0.7376000 1.07722 0.01695
0.7393000 1.09555 0.01744
0.7409000 1.09425 0.01596
0.7426000 1.12039 0.01579
0.7442000 1.13712 0.01564
0.7459000 1.12200 0.01619
0.7475000 1.06460 0.01679
0.7492000 1.12019 0.01573
0.7508000 1.08173 0.01636
0.7525000 1.07983 0.01945
0.7541000 1.08924 0.01567
0.7557000 1.09315 0.01687
0.7574000 1.10246 0.01817
0.7590000 0.98207 0.02148
0.7609000 0.97947 0.03955
0.7627000 1.05489 0.03042
0.7644000 1.15845 0.02698
0.7660000 1.13862 0.02193
0.7677000 1.12119 0.01766
0.7693000 1.11448 0.01799
0.7710000 1.13972 0.02847
0.7726000 1.10126 0.02218
0.7743000 1.08113 0.02556
0.7759000 1.09415 0.02419
0.7776000 1.13281 0.02241
0.7792000 1.07422 0.02563
0.7809000 1.10437 0.02362
0.7825000 1.10938 0.02447
0.7842000 1.14413 0.02354
0.7858000 1.11208 0.02813
0.7875000 1.09585 0.02447
0.7891000 1.09846 0.02533
0.7908000 1.10677 0.02999
0.7924000 1.11869 0.02880
0.7941000 1.11218 0.02400
0.7957000 1.05098 0.02590
0.7974000 1.10357 0.02636
0.7990000 1.06070 0.02487
0.8007000 1.08884 0.02339
0.8023000 1.07823 0.02864
0.8040000 1.13822 0.02316
0.8056000 1.11268 0.02493
0.8073000 1.11048 0.02234
0.8089000 1.11919 0.02274
0.8106000 1.14032 0.02286
0.8122000 1.08504 0.02278
0.8139000 1.07682 0.02337
0.8155000 1.15395 0.02354
0.8172000 1.16486 0.02443
0.8188000 1.15395 0.02488
0.8205000 1.15635 0.02441
0.8221000 1.17798 0.02442
0.8238000 1.14533 0.02531
0.8254000 1.15345 0.02512
0.8271000 1.15164 0.02679
0.8287000 1.13111 0.03905
0.8304000 1.10347 0.03375
0.8320000 1.10256 0.02578
0.8337000 1.20653 0.03969
0.8353000 1.08994 0.04250
0.8370000 1.15755 0.02794
0.8386000 1.11569 0.03345
0.8403000 1.14012 0.03965
0.8419000 1.02835 0.03600
0.8436000 1.06300 0.03960
0.8453000 1.04287 0.03309
0.8469000 1.09696 0.03558
0.8486000 1.08524 0.02804
0.8502000 1.04647 0.03346
0.8519000 1.12230 0.02641
0.8535000 1.03456 0.02902
0.8552000 1.19231 0.03304
0.8568000 1.14553 0.02647
0.8585000 1.08223 0.02670
0.8601000 1.09075 0.02842
0.8618000 1.10176 0.03834
0.8635000 1.12520 0.04479
0.8651000 1.07161 0.04367
0.8668000 1.14063 0.05586
0.8684000 1.15014 0.03588
0.8701000 1.06060 0.02942
0.8717000 1.06611 0.02934
0.8734000 1.15304 0.02861
0.8750000 1.09565 0.03199
0.8767000 1.05950 0.05168
0.8784000 1.08213 0.04620
0.8800000 1.08544 0.03126
0.8817000 1.16677 0.03766
0.8833000 1.03335 0.05786
0.8850000 1.06891 0.03596
0.8866000 1.10777 0.03784
0.8883000 0.99419 0.04819
0.8899000 1.10186 0.04218
0.8916000 1.07542 0.05114
0.8933000 1.12800 0.04332
0.8949000 1.06631 0.04396
0.8966000 1.06791 0.04668
0.8982000 1.09014 0.03484
