Asteroid designations ( Number, Name, Temporary designation): , -, 2004_TD10
Observation was done on (UT) (format YYYY-MM-DD-hh): 2004 - 10 - 21 - 00:00
Observation was made by : Simone Ieva E-mail; simone.ieva@obspm.fr
At observatory with UAI code: 568
Obsv. comments: Ieva et al. (2013) in preparation
The spectrum was published in the article: http://www.oa-roma.inaf.it/planet/NEOSURFACE.html
The normalization of this spectrum was made for the wavelength: 1.250 microns.
Original name of the file was: 2004TD10.txt
Wavelength[um]	Reflectance	sigma(optional)
0.8031 0.94526
0.8065 0.94105
0.8098 0.91937
0.8132 0.91226
0.8166 0.91894
0.8200 0.92343
0.8234 0.92377
0.8268 0.93366
0.8302 0.91471
0.8336 0.92069
0.8370 0.91648
0.8404 0.91895
0.8437 0.92797
0.8471 0.89966
0.8505 0.91026
0.8539 0.90392
0.8573 0.90140
0.8607 0.90106
0.8641 0.89476
0.8675 0.89165
0.8709 0.87632
0.8743 0.87415
0.8776 0.88392
0.8810 0.88393
0.8844 0.88092
0.8878 0.89008
0.8912 0.88832
0.8946 0.87334
0.8980 0.86715
0.9014 0.87694
0.9048 0.88253
0.9082 0.87517
0.9115 0.87766
0.9149 0.88093
0.9183 0.87901
0.9217 0.87561
0.9251 0.85698
0.9285 0.84726
0.9319 0.86402
0.9353 0.87102
0.9387 0.86942
0.9421 0.86713
0.9454 0.86196
0.9488 0.84850
0.9522 0.85935
0.9556 0.84661
0.9590 0.86922
0.9624 0.87309
0.9658 0.87065
0.9692 0.87060
0.9726 0.87034
0.9759 0.87531
0.9793 0.88249
0.9827 0.88251
0.9861 0.89484
0.9895 0.88695
0.9929 0.87929
0.9963 0.87814
0.9997 0.88048
1.0031 0.88169
1.0065 0.88750
1.0098 0.88890
1.0132 0.87145
1.0166 0.88531
1.0200 0.88620
1.0234 0.89070
1.0268 0.89640
1.0302 0.89142
1.0336 0.88589
1.0370 0.89299
1.0404 0.89182
1.0437 0.88691
1.0471 0.88434
1.0505 0.88774
1.0539 0.89324
1.0573 0.89475
1.0607 0.89069
1.0641 0.90263
1.0675 0.90376
1.0709 0.90605
1.0742 0.90662
1.0776 0.90623
1.0810 0.90896
1.0844 0.91651
1.0878 0.89699
1.0912 0.90536
1.0946 0.91210
1.0980 0.90864
1.1014 0.91598
1.1048 0.92644
1.1081 0.91295
1.1115 0.91116
1.1149 0.91613
1.1183 0.91588
1.1217 0.92433
1.1251 0.91719
1.1285 0.92596
1.1319 0.93377
1.1353 0.93191
1.1387 0.92774
1.1421 0.93300
1.1454 0.92949
1.1488 0.93242
1.1522 0.94270
1.1556 0.95072
1.1590 0.95903
1.1624 0.95860
1.1658 0.95672
1.1692 0.96021
1.1726 0.97498
1.1760 0.96167
1.1793 0.96810
1.1827 0.97367
1.1861 0.97438
1.1895 0.98027
1.1929 0.96999
1.1963 0.97345
1.1997 0.97375
1.2031 0.96834
1.2065 0.97504
1.2098 0.98586
1.2132 0.98561
1.2166 0.98050
1.2200 0.97739
1.2234 0.98289
1.2268 0.98262
1.2302 0.98120
1.2336 0.98226
1.2370 0.98763
1.2404 0.98480
1.2437 0.97303
1.2471 0.98065
1.2505 1.00000
1.2539 1.00015
1.2573 1.00635
1.2607 0.99593
1.2641 0.99331
1.2675 1.00587
1.2709 1.00895
1.2743 1.00372
1.2776 0.99991
1.2810 1.00279
1.2844 1.01440
1.2878 1.01986
1.2912 1.01471
1.2946 1.00769
1.2980 1.00497
1.3014 1.01284
1.3048 1.00118
1.3081 1.01383
1.3115 1.02064
1.3149 1.01099
1.3183 1.01865
1.3217 1.01825
1.3251 1.01884
1.3285 1.02223
1.3319 1.02846
1.3353 1.03205
1.3386 1.02507
1.3420 1.00796
1.3454 0.98948
1.3488 0.99608
1.4505 1.05022
1.4539 1.05941
1.4573 1.06089
1.4607 1.06105
1.4641 1.06850
1.4675 1.04390
1.4709 1.05428
1.4743 1.06684
1.4776 1.07190
1.4810 1.07643
1.4844 1.05291
1.4878 1.05846
1.4912 1.06736
1.4946 1.07067
1.4980 1.06344
1.5014 1.02275
1.5048 1.03034
1.5081 1.05613
1.5115 1.06805
1.5149 1.05970
1.5183 1.07615
1.5217 1.08609
1.5251 1.06907
1.5285 1.05634
1.5319 1.06210
1.5353 1.08372
1.5387 1.10670
1.5420 1.09385
1.5454 1.07442
1.5488 1.06147
1.5522 1.06604
1.5556 1.09694
1.5590 1.10858
1.5624 1.10945
1.5658 1.08163
1.5692 1.06404
1.5725 1.07953
1.5759 1.07873
1.5793 1.07208
1.5827 1.07689
1.5861 1.06779
1.5895 1.06894
1.5929 1.09436
1.5963 1.11067
1.5997 1.08569
1.6031 1.06311
1.6064 1.10085
1.6098 1.10840
1.6132 1.07044
1.6166 1.06941
1.6200 1.05194
1.6234 1.07106
1.6268 1.06332
1.6302 1.07115
1.6336 1.09030
1.6369 1.09837
1.6403 1.09617
1.6437 1.09940
1.6471 1.08169
1.6505 1.08550
1.6539 1.08572
1.6573 1.09270
1.6607 1.10487
1.6641 1.07322
1.6675 1.05808
1.6708 1.08076
1.6742 1.07957
1.6776 1.07973
1.6810 1.08158
1.6844 1.07558
1.6878 1.06436
1.6912 1.06893
1.6946 1.07456
1.6980 1.08090
1.7014 1.07717
1.7047 1.05615
1.7081 1.04827
1.7115 1.06861
1.7149 1.08952
1.7183 1.07745
1.7217 1.07871
1.7251 1.11707
1.7285 1.08692
1.7319 1.08664
1.7353 1.10145
1.7386 1.09348
1.7420 1.07201
1.7454 1.06960
1.7488 1.06614
1.7522 1.05611
1.7556 1.07104
1.7590 1.05769
1.7624 1.06133
1.7658 1.07885
1.7692 1.06794
1.7725 1.06910
1.7759 1.08188
1.7793 1.04627
1.7827 1.04577
1.7861 1.02709
1.7895 1.03544
1.7929 1.02221
1.7963 1.02863
1.7997 1.02311
2.0030 1.00345
2.0064 1.14229
2.0098 1.08114
2.0132 1.06584
2.0166 1.05003
2.0200 0.99267
2.0234 1.00526
2.0268 1.02339
2.0302 1.04859
2.0336 1.09267
2.0370 1.02913
2.0403 1.00574
2.0437 1.03025
2.0471 1.03722
2.0505 1.05825
2.0539 1.07329
2.0573 1.08213
2.0607 1.07051
2.0641 1.06564
2.0675 1.06037
2.0708 1.09342
2.0742 1.06036
2.0776 1.02699
2.0810 1.02138
2.0844 1.05571
2.0878 1.07847
2.0912 1.04908
2.0946 1.00300
2.0980 0.99095
2.1014 1.05730
2.1047 1.05217
2.1081 1.02691
2.1115 1.01795
2.1149 1.07340
2.1183 0.99658
2.1217 1.07844
2.1251 1.08233
2.1285 1.07321
2.1319 1.06470
2.1353 1.06492
2.1386 1.06603
2.1420 1.04674
2.1454 1.02537
2.1488 1.03122
2.1522 1.01945
2.1556 1.07383
2.1590 1.08302
2.1624 1.02787
2.1658 1.03182
2.1692 1.07312
2.1725 1.04774
2.1759 1.02354
2.1793 1.04194
2.1827 1.08622
2.1861 1.02791
2.1895 1.00249
2.1929 1.01249
2.1963 1.05428
2.1997 1.06165
2.2031 1.10523
2.2064 1.01994
2.2098 1.03185
2.2132 1.02402
2.2166 1.07485
2.2200 1.07708
2.2234 1.05357
2.2268 1.02791
2.2302 1.06144
2.2336 1.05416
2.2369 1.03136
2.2403 1.01234
2.2437 1.00264
2.2471 1.01118
2.2505 1.01516
2.2539 1.02338
2.2573 1.08577
2.2607 1.09288
2.2641 1.08296
2.2675 1.07534
2.2708 1.07669
2.2742 1.05537
2.2776 1.04154
2.2810 1.05568
2.2844 1.05303
2.2878 1.07696
2.2912 1.11213
2.2946 1.06072
2.2980 1.09401
2.3013 1.04801
2.3047 1.11678
2.3081 1.12023
2.3115 1.05688
2.3149 0.99438
2.3183 1.05558
2.3217 1.03940
2.3251 1.05819
2.3285 1.07323
2.3319 1.09739
2.3352 1.02849
2.3386 1.16334
2.3420 1.02214
2.3454 1.09106
2.3488 1.00508
2.3522 1.06718
2.3556 1.14277
2.3590 1.06982
2.3624 1.04605
2.3657 1.04728
2.3691 1.07300
2.3725 1.06403
2.3759 1.13560
2.3793 1.09618
2.3827 1.08011
2.3861 1.07103
2.3895 1.08517
2.3929 1.09854
2.3963 1.06300
2.3996 1.03205
2.4030 1.06814
