Asteroid designations ( Number, Name, Temporary designation): 164222, -, 2004_RN9
Observation was done on (UT) (format YYYY-MM-DD-hh): 2004 - 09 - 23 - 00:00
Observation was made by : Simone Ieva E-mail; simone.ieva@obspm.fr
At observatory with UAI code: 568
Obsv. comments: Ieva et al. (2013) in preparation
The spectrum was published in the article: http://www.oa-roma.inaf.it/planet/NEOSURFACE.html
The normalization of this spectrum was made for the wavelength: 1.250 microns.
Original name of the file was: 2004RN9.txt
Wavelength[um]	Reflectance	sigma(optional)
0.8030 0.91399
0.8064 0.92016
0.8098 0.92568
0.8132 0.91142
0.8166 0.87812
0.8200 0.86126
0.8234 0.87273
0.8268 0.85696
0.8302 0.86102
0.8335 0.86604
0.8369 0.87006
0.8403 0.85582
0.8437 0.86082
0.8471 0.86334
0.8505 0.85146
0.8539 0.84620
0.8573 0.84163
0.8607 0.83254
0.8640 0.83410
0.8674 0.82642
0.8708 0.81760
0.8742 0.81339
0.8776 0.81482
0.8810 0.80826
0.8844 0.82389
0.8878 0.83336
0.8912 0.82340
0.8946 0.83502
0.8979 0.82826
0.9013 0.82040
0.9047 0.80883
0.9081 0.81937
0.9115 0.82348
0.9149 0.81610
0.9183 0.81342
0.9217 0.81913
0.9251 0.82182
0.9285 0.81947
0.9318 0.81908
0.9352 0.81229
0.9386 0.80774
0.9420 0.81068
0.9454 0.80655
0.9488 0.79168
0.9522 0.80557
0.9556 0.80432
0.9590 0.82566
0.9623 0.81402
0.9657 0.81614
0.9691 0.81864
0.9725 0.80780
0.9759 0.80564
0.9793 0.82222
0.9827 0.83011
0.9861 0.82054
0.9895 0.83631
0.9929 0.82972
0.9962 0.83178
0.9996 0.82770
1.0030 0.82813
1.0064 0.82789
1.0098 0.81868
1.0132 0.81287
1.0166 0.84954
1.0200 0.84445
1.0234 0.83716
1.0268 0.83251
1.0301 0.83153
1.0335 0.83364
1.0369 0.83833
1.0403 0.84573
1.0437 0.84041
1.0471 0.84815
1.0505 0.85193
1.0539 0.85095
1.0573 0.84781
1.0607 0.84743
1.0640 0.86912
1.0674 0.86254
1.0708 0.85817
1.0742 0.86093
1.0776 0.86112
1.0810 0.85004
1.0844 0.85827
1.0878 0.86275
1.0912 0.87185
1.0945 0.87995
1.0979 0.88252
1.1013 0.87882
1.1047 0.88306
1.1081 0.88094
1.1115 0.89242
1.1149 0.90304
1.1183 0.89831
1.1217 0.89762
1.1251 0.90114
1.1284 0.91259
1.1318 0.91815
1.1352 0.91472
1.1386 0.91341
1.1420 0.90428
1.1454 0.91733
1.1488 0.92608
1.1522 0.93058
1.1556 0.94832
1.1589 0.93636
1.1623 0.93419
1.1657 0.93490
1.1691 0.93716
1.1725 0.94288
1.1759 0.95178
1.1793 0.95995
1.1827 0.96057
1.1861 0.95760
1.1895 0.96385
1.1928 0.95385
1.1962 0.96385
1.1996 0.96847
1.2030 0.96537
1.2064 0.98142
1.2098 0.98661
1.2132 1.00161
1.2166 1.00104
1.2200 0.97778
1.2234 0.97463
1.2268 0.99189
1.2301 0.98572
1.2335 0.97459
1.2369 0.98233
1.2403 0.99508
1.2437 0.98281
1.2471 0.98596
1.2505 1.00000
1.2539 0.99704
1.2573 0.99200
1.2607 0.98418
1.2640 0.98804
1.2674 1.00387
1.2708 1.00720
1.2742 1.00527
1.2776 1.00819
1.2810 1.01593
1.2844 1.02688
1.2878 1.03828
1.2912 1.02111
1.2945 1.01857
1.2979 1.02384
1.3013 1.00453
1.3047 1.02574
1.3081 1.02079
1.3115 1.01308
1.3149 1.01673
1.3183 1.03214
1.3217 1.02748
1.3251 1.03004
1.3284 1.03656
1.3318 1.03919
1.3352 1.03204
1.3386 1.02391
1.3420 1.01696
1.3454 1.01584
1.3488 1.02994
1.3522 1.02608
1.3556 1.03286
1.3590 1.03417
1.3623 1.02000
1.3657 1.02087
1.3691 1.00931
1.3725 1.01481
1.3759 1.02427
1.3793 1.02792
1.3827 1.04515
1.3861 1.05268
1.3895 1.04715
1.3928 1.04855
1.3962 1.07609
1.3996 1.08602
1.4030 1.08350
1.4064 1.06786
1.4098 1.05737
1.4132 1.07424
1.4166 1.08658
1.4200 1.08560
1.4233 1.07633
1.4267 1.06748
1.4301 1.07087
1.4335 1.08001
1.4369 1.09393
1.4403 1.09510
1.4437 1.08501
1.4471 1.08199
1.4505 1.09217
1.4539 1.10858
1.4572 1.12204
1.4606 1.11907
1.4640 1.08448
1.4674 1.10843
1.4708 1.13365
1.4742 1.13742
1.4776 1.13115
1.4810 1.14381
1.4844 1.10603
1.4878 1.11820
1.4912 1.11852
1.4945 1.11408
1.4979 1.12777
1.5013 1.13122
1.5047 1.16019
1.5081 1.14190
1.5115 1.12378
1.5149 1.13225
1.5183 1.11461
1.5217 1.13541
1.5251 1.14830
1.5284 1.14571
1.5318 1.14400
1.5352 1.16443
1.5386 1.15772
1.5420 1.16694
1.5454 1.13438
1.5488 1.11688
1.5522 1.13646
1.5556 1.13686
1.5589 1.15358
1.5623 1.15813
1.5657 1.15956
1.5691 1.15946
1.5725 1.15724
1.5759 1.15343
1.5793 1.16778
1.5827 1.17031
1.5861 1.15551
1.5895 1.14593
1.5928 1.15227
1.5962 1.15016
1.5996 1.12104
1.6030 1.14263
1.6064 1.17263
1.6098 1.17578
1.6132 1.15237
1.6166 1.13521
1.6200 1.13625
1.6234 1.17097
1.6267 1.15788
1.6301 1.17559
1.6335 1.18151
1.6369 1.15609
1.6403 1.20255
1.6437 1.14905
1.6471 1.12723
1.6505 1.16310
1.6539 1.15620
1.6572 1.12845
1.6606 1.13286
1.6640 1.14314
1.6674 1.16653
1.6708 1.10770
1.6742 1.12504
1.6776 1.13812
1.6810 1.13590
1.6844 1.12814
1.6878 1.12132
1.6911 1.14780
1.6945 1.12415
1.6979 1.11628
1.7013 1.09055
1.7047 1.11299
1.7081 1.15706
1.7115 1.16635
1.7149 1.13957
1.7183 1.13618
1.7216 1.12884
1.7250 1.16049
1.7284 1.14561
1.7318 1.11802
1.7352 1.11228
1.7386 1.12267
1.7420 1.12922
1.7454 1.12864
1.7488 1.12948
1.7522 1.13828
1.7555 1.13709
1.7589 1.16604
1.7623 1.14496
1.7657 1.13098
1.7691 1.13339
1.7725 1.12479
1.7759 1.11240
1.7793 1.12883
1.7827 1.13934
1.7861 1.07817
1.7894 1.10628
1.7928 1.03564
1.7962 1.08414
1.7996 1.13347
1.8030 1.09726
1.8064 1.06606
1.8098 1.06559
1.8132 1.09355
1.8166 1.09555
1.8200 1.00267
1.8233 1.01955
1.8267 1.02329
1.8301 1.09470
1.8335 1.14717
1.8369 1.09422
1.8403 1.06895
1.8437 1.06806
1.8471 1.03684
1.8505 1.04181
1.8538 1.05391
1.8572 1.07005
1.8606 1.10053
1.8640 1.13625
1.8674 1.14179
1.8708 1.07040
1.8742 0.98376
1.8776 0.99674
1.8810 1.01665
1.8844 1.10796
1.8878 1.00960
1.8911 1.05896
1.8945 1.02070
1.8979 1.05333
1.9013 1.08122
1.9047 1.12700
1.9081 1.14620
1.9115 1.04431
1.9149 1.08837
1.9183 1.09899
1.9216 1.07427
1.9250 1.05718
1.9284 1.04368
1.9318 1.03305
1.9352 1.03844
1.9386 1.03348
1.9420 1.07551
1.9454 1.12705
1.9488 1.15520
1.9521 1.14931
1.9555 1.10079
1.9589 1.11363
1.9623 1.08151
1.9657 1.10692
1.9691 1.11777
1.9725 1.08202
1.9759 1.08478
1.9793 1.09437
1.9827 1.09629
1.9861 1.09081
1.9894 1.09464
1.9928 1.05918
1.9962 1.09799
1.9996 1.06464
2.0030 1.09865
2.0064 1.09984
2.0098 1.05955
2.0132 1.02676
2.0166 1.06471
2.0200 1.08443
2.0233 1.07082
2.0267 1.10120
2.0301 1.05324
2.0335 1.09236
2.0369 1.15833
2.0403 1.09714
2.0437 1.08775
2.0471 1.05907
2.0505 1.11716
2.0539 1.10310
2.0572 1.13316
2.0606 1.13639
2.0640 1.06726
2.0674 1.08184
2.0708 1.12871
2.0742 1.09994
2.0776 1.10884
2.0810 1.13555
2.0844 1.10488
2.0877 1.09491
2.0911 1.08872
2.0945 1.07146
2.0979 1.09630
2.1013 1.10916
2.1047 1.12106
2.1081 1.09113
2.1115 1.18091
2.1149 1.10800
2.1183 1.12690
2.1216 1.09316
2.1250 1.11841
2.1284 1.13351
2.1318 1.13588
2.1352 1.11325
2.1386 1.12807
2.1420 1.12269
2.1454 1.11475
2.1488 1.10500
2.1521 1.12253
2.1555 1.12021
2.1589 1.10598
2.1623 1.11945
2.1657 1.11946
2.1691 1.09003
2.1725 1.08348
2.1759 1.13542
2.1793 1.13524
2.1827 1.12308
2.1860 1.08415
2.1894 1.07647
2.1928 1.12837
2.1962 1.17728
2.1996 1.12608
2.2030 1.19304
2.2064 1.11951
2.2098 1.11343
2.2132 1.18068
2.2165 1.10914
2.2199 1.08661
2.2233 1.14173
2.2267 1.14530
2.2301 1.16722
2.2335 1.15393
2.2369 1.17154
2.2403 1.06826
2.2437 1.15146
2.2471 1.11429
2.2504 1.14759
2.2538 1.12584
2.2572 1.10860
2.2606 1.18032
2.2640 1.20219
2.2674 1.15738
2.2708 1.08605
2.2742 1.09954
2.2776 1.16798
2.2810 1.14911
2.2843 1.15046
2.2877 1.05681
2.2911 1.21319
2.2945 1.22720
2.2979 1.22780
2.3013 1.22102
2.3047 1.17100
2.3081 1.10965
2.3115 1.11470
2.3149 1.09344
2.3182 1.05471
2.3216 1.15016
2.3250 1.11419
2.3284 1.10133
2.3318 1.10981
2.3352 1.11889
2.3386 1.16934
2.3420 1.12173
2.3454 1.17955
2.3487 1.09545
2.3521 1.14669
2.3555 1.25624
2.3589 1.14481
2.3623 1.13801
2.3657 1.16119
2.3691 1.09717
2.3725 1.17211
2.3759 1.18628
2.3793 1.10384
2.3826 1.18323
2.3860 1.27656
2.3894 1.12032
2.3928 1.06975
2.3962 1.10214
2.3996 1.17344
2.4030 1.05745
