Asteroid designations ( Number, Name, Temporary designation): , -, 2004_FZ1
Observation was done on (UT) (format YYYY-MM-DD-hh): 2000 - 01 - 01 - 00:00
Observation was made by : Davide Perna E-mail; davide.perna@obspm.fr
At observatory with UAI code: 950
Obsv. comments: Ambigous date
The spectrum was published in the article: http://www.oa-roma.inaf.it/planet/NEOSURFACE.html
The normalization of this spectrum was made for the wavelength: 1.250 microns.
Original name of the file was: 2004FZ1.txt
Wavelength[um]	Reflectance	sigma(optional)
0.8019 0.88154
0.8053 0.91785
0.8087 0.92190
0.8121 0.90737
0.8155 0.90259
0.8189 0.88631
0.8223 0.86860
0.8257 0.86586
0.8291 0.87237
0.8324 0.88240
0.8358 0.84738
0.8392 0.86587
0.8426 0.86015
0.8460 0.86905
0.8494 0.85580
0.8528 0.86009
0.8562 0.83964
0.8596 0.82482
0.8629 0.81952
0.8663 0.81451
0.8697 0.80716
0.8731 0.79803
0.8765 0.80373
0.8799 0.80896
0.8833 0.79888
0.8867 0.80663
0.8901 0.79819
0.8935 0.80376
0.8968 0.78136
0.9002 0.79662
0.9036 0.81180
0.9070 0.79538
0.9104 0.79452
0.9138 0.80608
0.9172 0.80515
0.9206 0.78612
0.9240 0.77003
0.9273 0.77111
0.9307 0.79023
0.9341 0.79023
0.9375 0.78048
0.9409 0.78880
0.9443 0.78780
0.9477 0.77895
0.9511 0.79699
0.9545 0.79888
0.9578 0.79958
0.9612 0.81818
0.9646 0.82299
0.9680 0.79727
0.9714 0.81734
0.9748 0.82867
0.9782 0.82583
0.9816 0.82459
0.9850 0.82788
0.9883 0.83373
0.9917 0.83814
0.9951 0.84787
0.9985 0.83777
1.0019 0.84670
1.0053 0.86339
1.0087 0.86386
1.0121 0.85262
1.0155 0.84782
1.0189 0.84788
1.0222 0.88248
1.0256 0.89131
1.0290 0.88241
1.0324 0.88545
1.0358 0.88742
1.0392 0.87650
1.0426 0.87509
1.0460 0.89755
1.0494 0.90333
1.0527 0.90255
1.0561 0.90575
1.0595 0.90609
1.0629 0.89273
1.0663 0.88032
1.0697 0.90409
1.0731 0.90731
1.0765 0.90053
1.0798 0.90103
1.0832 0.91496
1.0866 0.91109
1.0900 0.92838
1.0934 0.92942
1.0968 0.93288
1.1002 0.93278
1.1036 0.91241
1.1070 0.92999
1.1103 0.93162
1.1137 0.93212
1.1171 0.93140
1.1205 0.93145
1.1239 0.94702
1.1273 0.93668
1.1307 0.94111
1.1341 0.94466
1.1375 0.94227
1.1409 0.94305
1.1442 0.93348
1.1476 0.93223
1.1510 0.94290
1.1544 0.95052
1.1578 0.93161
1.1612 0.95714
1.1646 0.96260
1.1680 0.96328
1.1714 0.96259
1.1747 0.95801
1.1781 0.97998
1.1815 0.97308
1.1849 0.96671
1.1883 0.96487
1.1917 0.95269
1.1951 0.96519
1.1985 0.97188
1.2019 0.96623
1.2052 0.95778
1.2086 0.97998
1.2120 0.97636
1.2154 0.98441
1.2188 0.98783
1.2222 0.97699
1.2256 0.96666
1.2290 0.96970
1.2324 0.99567
1.2357 1.02356
1.2391 1.02794
1.2425 0.99489
1.2459 0.99999
1.2493 1.00000
1.2527 0.99473
1.2561 1.00969
1.2595 1.00071
1.2629 1.00011
1.2663 1.00696
1.2696 1.01148
1.2730 0.98099
1.2764 1.00059
1.2798 0.98728
1.2832 0.97032
1.2866 0.98876
1.2900 1.03131
1.2934 1.03191
1.2968 1.03411
1.3001 1.04203
1.3035 1.03698
1.3069 1.02219
1.3103 1.03023
1.3137 1.04049
1.3171 1.04092
1.3205 1.03929
1.3239 1.04183
1.3273 1.04104
1.3307 1.03795
1.3340 1.03667
1.3374 1.05655
1.3408 1.06219
1.3442 1.07121
1.3476 1.08776
1.3510 1.10526
1.3544 1.11587
1.3578 1.11267
1.3612 1.07664
1.3645 1.01528
1.3679 1.02233
1.3713 1.03580
1.3747 1.04538
1.3781 1.04932
1.3815 1.04965
1.3849 1.05600
1.3883 1.06245
1.3917 1.06354
1.3950 1.07145
1.3984 1.09586
1.4018 1.05088
1.4052 1.05431
1.4086 1.04065
1.4120 1.01894
1.4154 1.03471
1.4188 1.05121
1.4222 1.04185
1.4255 1.05995
1.4289 1.09009
1.4323 1.05578
1.4357 1.09032
1.4391 1.05843
1.4425 1.03220
1.4459 1.04010
1.4493 1.06340
1.4527 1.09819
1.4560 1.09664
1.4594 1.08798
1.4628 1.08986
1.4662 1.10780
1.4696 1.07665
1.4730 1.07616
1.4764 1.07421
1.4798 1.06766
1.4832 1.07330
1.4865 1.06744
1.4899 1.06697
1.4933 1.04688
1.4967 1.04092
1.5001 1.07726
1.5035 1.02039
1.5069 1.03575
1.5103 1.04440
1.5137 1.04923
1.5171 1.05918
1.5204 1.06582
1.5238 1.07177
1.5272 1.05539
1.5306 1.05128
1.5340 1.05840
1.5374 1.04988
1.5408 1.01062
1.5442 1.07990
1.5476 1.10117
1.5509 1.08806
1.5543 1.08728
1.5577 1.13292
1.5611 1.07061
1.5645 1.05805
1.5679 1.04926
1.5713 1.04399
1.5747 1.04817
1.5780 1.05179
1.5814 1.05204
1.5848 1.01209
1.5882 1.02684
1.5916 1.05459
1.5950 1.05208
1.5984 1.04043
1.6018 1.01965
1.6052 1.05237
1.6085 1.05197
1.6119 1.02958
1.6153 1.01105
1.6187 1.01064
1.6221 1.02866
1.6255 1.01545
1.6289 1.01567
1.6323 1.03722
1.6357 1.06636
1.6390 1.08178
1.6424 1.07124
1.6458 1.04262
1.6492 1.06039
1.6526 1.02783
1.6560 1.02937
1.6594 1.03908
1.6628 1.02947
1.6662 1.04519
1.6696 1.05335
1.6729 1.00162
1.6763 1.01888
1.6797 1.05710
1.6831 1.04562
1.6865 1.01155
1.6899 1.02326
1.6933 1.04846
1.6967 1.09619
1.7001 0.97047
1.7034 1.03039
1.7068 1.05106
1.7102 1.03424
1.7136 1.01415
1.7170 0.99852
1.7204 1.02851
1.7238 1.01772
1.7272 1.01774
1.7306 0.98019
1.7340 0.99476
1.7373 0.99142
1.7407 0.98033
1.7441 0.99323
1.7475 1.01719
1.7509 1.02727
1.7543 1.04155
1.7577 1.09851
1.7611 1.02446
1.7645 1.01988
1.7678 0.98442
1.7712 1.02122
1.7746 1.04862
1.7780 1.02082
1.7814 1.00809
1.7848 1.01010
1.7882 1.05355
1.7916 0.98962
1.7950 0.97243
1.7983 1.00030
1.8017 0.98199
1.8051 1.03269
1.8085 0.97653
1.8119 0.96929
1.8153 1.00903
1.8187 1.00121
1.8221 1.01461
1.8255 1.03746
1.8288 1.07588
1.8322 1.01401
1.8356 0.92025
1.8390 1.01799
1.8424 1.01311
1.8458 0.93518
1.8492 0.96330
1.8526 0.99565
1.8560 0.96636
1.8593 1.00518
1.8627 1.11378
1.8661 1.10671
1.8695 1.01881
1.8729 0.98944
1.8763 0.96370
1.8797 1.01791
1.8831 0.97690
1.8865 0.98366
1.8899 0.98746
1.8932 0.96982
1.8966 1.04817
1.9000 1.03798
1.9034 1.04931
1.9068 0.92528
1.9102 0.92552
1.9136 0.94588
1.9170 0.93866
1.9204 0.96975
1.9237 0.96759
1.9271 0.91037
1.9305 0.90775
1.9339 0.97372
1.9373 0.97164
1.9407 0.99432
1.9441 0.97623
1.9475 0.96062
1.9508 0.94703
1.9542 0.96027
1.9576 0.98362
1.9610 0.93897
1.9644 0.94123
1.9678 0.95355
1.9712 0.96548
1.9746 0.97704
1.9780 0.96166
1.9813 0.97995
1.9847 0.98268
1.9881 1.01175
1.9915 0.99583
1.9949 1.04263
1.9983 1.06389
2.0017 1.06964
2.0051 1.05860
2.0085 1.03311
2.0118 1.06938
2.0152 0.98320
2.0186 0.96695
2.0220 0.90465
2.0254 0.94525
2.0288 1.00994
2.0322 0.98147
2.0356 0.94280
2.0390 0.92912
2.0424 0.98703
2.0457 1.00678
2.0491 0.94508
2.0525 0.98563
2.0559 1.01082
2.0593 0.97481
2.0627 0.99697
2.0661 0.98197
2.0695 1.02160
2.0729 1.04672
2.0762 1.06444
2.0796 1.03541
2.0830 1.03571
2.0864 0.95744
2.0898 0.91884
2.0932 0.97053
2.0966 0.96098
2.1000 1.03119
2.1034 0.96689
2.1067 0.95081
2.1101 0.93450
2.1135 1.00753
2.1169 0.97639
2.1203 0.99444
2.1237 1.01643
2.1271 0.99719
2.1305 1.01295
2.1339 1.00566
2.1372 1.01580
2.1406 1.03374
2.1440 0.99389
2.1474 1.00646
2.1508 1.02170
2.1542 0.97724
2.1576 1.04301
2.1610 0.99435
2.1644 1.00007
2.1677 0.99536
2.1711 1.00406
2.1745 0.96314
2.1779 1.00820
2.1813 0.96807
2.1847 0.93615
2.1881 0.87788
2.1915 0.99419
2.1949 1.04672
2.1982 1.00008
2.2016 0.99138
2.2050 0.86900
2.2084 0.97268
2.2118 0.98995
2.2152 1.00811
2.2186 0.99930
2.2220 1.01845
2.2254 1.05717
2.2288 1.01829
2.2321 1.00524
2.2355 1.10687
2.2389 1.11660
2.2423 1.11745
2.2457 1.01770
2.2491 1.02139
2.2525 1.02433
2.2559 0.97991
2.2593 1.07564
2.2626 1.01852
2.2660 1.02560
2.2694 1.07183
2.2728 0.99660
2.2762 1.00071
2.2796 1.04888
2.2830 1.04024
2.2864 0.99780
2.2898 1.03811
2.2931 1.07313
2.2965 1.04795
2.2999 1.07222
2.3033 1.04973
2.3067 0.98294
2.3101 1.00134
2.3135 0.95718
2.3169 1.04523
2.3203 1.01129
2.3237 1.06556
2.3270 0.98690
2.3304 1.07181
2.3338 1.06588
2.3372 0.97352
2.3406 1.03025
2.3440 1.09762
2.3474 1.11102
2.3508 1.04493
2.3542 0.97415
2.3575 0.98069
2.3609 1.00528
2.3643 1.09899
2.3677 0.87207
2.3711 0.99226
2.3745 1.11505
2.3779 1.04375
2.3813 1.04961
2.3847 1.07726
2.3880 0.95626
2.3914 1.01932
2.3948 0.97302
2.3982 0.97870
2.4016 0.88801
