Asteroid designations ( Number, Name, Temporary designation): 333578, -,  K06KA3M
Observation was done on (UT) (format YYYY-MM-DD-hh): 2014 - 08 - 21 - 01:35
Observation was made by : O. Vaduvescu; M. Popescu E-mail; ovidiu.vaduvescu@gmail.com;
At observatory with UAI code: 950
Obsv. comments: INT/IDS; If this spectrum is usefull please contact: ovidiu.vaduvescu@gmail.com; mpopescu@imcce.fr
The spectrum was published in the article: Unpublished; Contact:mpopescu@imcce.fr
The normalization of this spectrum was made for the wavelength: 0.550 microns.
Original name of the file was: 333578vshd239928.txt
Wavelength[um]	Reflectance	sigma(optional)
0.4009000 0.61935 0.05105
0.4031000 0.68688 0.04926
0.4049000 0.63561 0.05005
0.4070000 0.67431 0.04744
0.4090000 0.68918 0.04580
0.4114000 0.64359 0.04078
0.4130000 0.60618 0.03685
0.4147000 0.62504 0.03655
0.4163000 0.64888 0.03712
0.4179000 0.66913 0.03669
0.4195000 0.61995 0.03583
0.4212000 0.64140 0.03257
0.4232000 0.60888 0.03555
0.4248000 0.65387 0.03336
0.4265000 0.63521 0.03196
0.4283000 0.65746 0.03172
0.4301000 0.72708 0.04223
0.4317000 0.72319 0.03284
0.4334000 0.70065 0.03072
0.4350000 0.72549 0.02920
0.4366000 0.69925 0.02490
0.4382000 0.66075 0.02787
0.4399000 0.68429 0.02750
0.4415000 0.72818 0.02533
0.4431000 0.76968 0.02509
0.4447000 0.74125 0.02420
0.4464000 0.78653 0.02398
0.4480000 0.76838 0.02101
0.4496000 0.75072 0.02049
0.4513000 0.75332 0.02026
0.4529000 0.74404 0.02278
0.4545000 0.76828 0.02025
0.4561000 0.79910 0.02035
0.4578000 0.74444 0.01887
0.4594000 0.77027 0.02014
0.4610000 0.83900 0.01861
0.4626000 0.79421 0.01949
0.4643000 0.81486 0.01839
0.4659000 0.78623 0.01895
0.4675000 0.78753 0.01864
0.4692000 0.78544 0.01864
0.4708000 0.80539 0.01852
0.4724000 0.82544 0.01700
0.4740000 0.81805 0.01746
0.4757000 0.84768 0.01732
0.4773000 0.85047 0.01620
0.4789000 0.87511 0.01647
0.4806000 0.85965 0.01722
0.4822000 0.86803 0.01696
0.4838000 0.84978 0.01686
0.4854000 0.92299 0.01965
0.4871000 0.87142 0.01811
0.4887000 0.89097 0.01711
0.4903000 0.85596 0.01543
0.4920000 0.85895 0.01633
0.4936000 0.89636 0.01634
0.4952000 0.85666 0.01603
0.4969000 0.86514 0.01532
0.4985000 0.93945 0.01629
0.5001000 0.83671 0.01675
0.5017000 0.88758 0.01664
0.5034000 0.91332 0.01599
0.5050000 0.90145 0.01615
0.5066000 0.91491 0.01599
0.5083000 0.91900 0.01562
0.5099000 0.86574 0.01513
0.5115000 0.90284 0.01471
0.5132000 0.90574 0.01516
0.5148000 0.92239 0.01503
0.5164000 0.89377 0.01730
0.5181000 0.90095 0.01577
0.5197000 0.94733 0.01492
0.5213000 0.94484 0.01492
0.5229000 0.94025 0.01535
0.5246000 0.94693 0.01387
0.5262000 0.96928 0.01529
0.5278000 0.98314 0.01439
0.5295000 0.92469 0.01435
0.5311000 0.98264 0.01366
0.5327000 0.94833 0.01519
0.5344000 0.98304 0.01423
0.5360000 0.95800 0.01459
0.5376000 0.97327 0.01370
0.5393000 0.96209 0.01456
0.5409000 0.98204 0.01426
0.5425000 0.99910 0.01425
0.5442000 0.98185 0.01423
0.5458000 1.00329 0.01421
0.5474000 0.97347 0.01481
0.5491000 1.00319 0.01475
0.5507000 1.00000 0.01451
0.5523000 0.99860 0.01367
0.5540000 0.97805 0.01440
0.5556000 0.99631 0.01408
0.5572000 0.93137 0.02634
0.5589000 1.05616 0.01829
0.5605000 1.04848 0.01476
0.5621000 0.97676 0.01464
0.5638000 1.01476 0.01448
0.5654000 0.99042 0.01478
0.5670000 0.97496 0.01442
0.5687000 0.99242 0.01499
0.5703000 1.00569 0.01508
0.5719000 1.00628 0.01470
0.5736000 0.98075 0.01435
0.5752000 0.99122 0.01480
0.5768000 1.06843 0.01392
0.5785000 1.04618 0.01415
0.5801000 1.03551 0.01442
0.5818000 1.03461 0.01405
0.5834000 1.05566 0.01432
0.5850000 1.05117 0.01507
0.5867000 1.04998 0.01446
0.5883000 1.02464 0.02117
0.5899000 1.06993 0.02085
0.5916000 1.07641 0.01486
0.5932000 1.05566 0.01515
0.5948000 1.08628 0.01542
0.5965000 1.07322 0.01409
0.5981000 1.07152 0.01521
0.5997000 1.10234 0.01460
0.6014000 1.05197 0.01503
0.6030000 1.06823 0.01453
0.6047000 1.07671 0.01486
0.6063000 1.07800 0.01488
0.6079000 1.07850 0.01396
0.6096000 1.03820 0.01484
0.6112000 1.02803 0.01502
0.6128000 1.06534 0.01529
0.6145000 1.08958 0.01428
0.6161000 1.06165 0.01498
0.6178000 1.09766 0.01529
0.6194000 1.09187 0.01451
0.6210000 1.08888 0.01510
0.6227000 1.07022 0.01509
0.6243000 1.06763 0.01500
0.6259000 1.09845 0.01527
0.6276000 1.07411 0.01581
0.6292000 1.05766 0.01668
0.6309000 1.11222 0.01732
0.6325000 1.07701 0.01534
0.6341000 1.08070 0.01590
0.6358000 1.12798 0.01588
0.6374000 1.07571 0.01537
0.6391000 1.08788 0.01519
0.6407000 1.07830 0.01626
0.6423000 1.13626 0.01542
0.6440000 1.11820 0.01517
0.6456000 1.07022 0.01560
0.6472000 1.08150 0.01648
0.6489000 1.12868 0.01672
0.6505000 1.11222 0.01609
0.6522000 1.13506 0.01652
0.6538000 1.10254 0.01701
0.6554000 1.05047 0.02008
0.6571000 1.08090 0.01689
0.6587000 1.11212 0.01662
0.6604000 1.15022 0.01585
0.6620000 1.08858 0.01634
0.6637000 1.11860 0.01517
0.6653000 1.08190 0.01552
0.6669000 1.12858 0.01522
0.6686000 1.12160 0.01602
0.6702000 1.08479 0.01573
0.6719000 1.08958 0.01684
0.6735000 1.14773 0.01546
0.6751000 1.13097 0.01607
0.6768000 1.15102 0.01590
0.6784000 1.13117 0.01605
0.6801000 1.10065 0.01654
0.6817000 1.10364 0.01624
0.6833000 1.10983 0.01874
0.6850000 1.10244 0.01616
0.6866000 1.10394 0.02112
0.6883000 1.11711 0.01740
0.6899000 1.12190 0.01792
0.6916000 1.10743 0.01860
0.6932000 1.12379 0.01814
0.6948000 1.12130 0.01908
0.6965000 1.11102 0.01817
0.6981000 1.12309 0.01869
0.6998000 1.13945 0.01869
0.7014000 1.15322 0.01778
0.7031000 1.13317 0.01764
0.7047000 1.10983 0.01720
0.7063000 1.12289 0.01747
0.7080000 1.13636 0.01689
0.7096000 1.16938 0.01856
0.7113000 1.11411 0.01763
0.7129000 1.13456 0.01820
0.7146000 1.11571 0.01829
0.7162000 1.08968 0.01869
0.7178000 1.07960 0.02141
0.7195000 1.16898 0.02135
0.7211000 1.09766 0.01874
0.7228000 1.09706 0.02186
0.7244000 1.10713 0.02655
0.7261000 1.13436 0.02192
0.7277000 1.12419 0.02560
0.7294000 1.18424 0.02413
0.7310000 1.16359 0.02400
0.7326000 1.11970 0.02217
0.7343000 1.14195 0.02431
0.7359000 1.15521 0.02154
0.7376000 1.11012 0.02125
0.7392000 1.14175 0.02225
0.7409000 1.08708 0.02102
0.7425000 1.12758 0.01953
0.7442000 1.15172 0.02128
0.7458000 1.08399 0.02010
0.7475000 1.09865 0.02210
0.7491000 1.07352 0.02151
0.7508000 1.12409 0.02127
0.7524000 1.05905 0.02521
0.7540000 1.07292 0.02018
0.7557000 1.11980 0.02165
0.7573000 1.11751 0.02312
0.7590000 1.03910 0.03182
0.7608000 1.16708 0.04404
0.7627000 1.07122 0.03656
0.7643000 1.18384 0.02971
0.7660000 1.11701 0.02685
0.7676000 1.08658 0.02272
0.7693000 1.13037 0.02185
0.7709000 1.11761 0.03099
0.7726000 1.10693 0.02663
0.7742000 1.15102 0.02819
0.7759000 1.13017 0.02831
0.7775000 1.12160 0.02568
0.7792000 1.09935 0.03112
0.7808000 1.09297 0.02667
0.7825000 1.12509 0.02874
0.7841000 1.08678 0.02749
0.7858000 1.08698 0.03286
0.7874000 1.01486 0.03064
0.7891000 1.06065 0.03026
0.7907000 1.09875 0.03276
0.7923000 1.05656 0.03320
0.7940000 1.06314 0.03026
0.7956000 0.96898 0.03198
0.7973000 1.05247 0.03146
0.7989000 1.03481 0.03158
0.8006000 1.08200 0.02887
0.8022000 1.07910 0.02910
0.8039000 1.05297 0.02933
0.8055000 1.13616 0.02955
0.8072000 1.10424 0.02902
0.8088000 1.10224 0.02742
0.8105000 1.03860 0.02928
0.8121000 1.04768 0.02943
0.8138000 1.04369 0.03383
0.8154000 0.97297 0.03274
0.8171000 1.08269 0.03258
0.8187000 1.09855 0.03535
0.8204000 1.02983 0.03314
0.8220000 1.08808 0.03667
0.8237000 1.08618 0.03246
0.8253000 1.05297 0.03221
0.8270000 0.99481 0.03499
0.8286000 1.04998 0.04505
0.8303000 1.03182 0.04250
0.8320000 1.08519 0.03458
0.8336000 1.05576 0.04317
0.8353000 1.09855 0.04364
0.8369000 0.99920 0.03646
0.8386000 1.06663 0.03965
0.8402000 1.07820 0.04299
0.8419000 1.00818 0.04161
0.8435000 0.99621 0.04313
0.8452000 1.00728 0.03889
0.8468000 1.02264 0.04132
0.8485000 1.02863 0.03570
0.8501000 1.01616 0.04111
0.8518000 0.96988 0.03437
0.8534000 1.01277 0.03911
0.8551000 0.97636 0.03856
0.8567000 1.01397 0.03339
0.8584000 1.05486 0.03554
0.8600000 1.06234 0.03447
0.8617000 0.95262 0.03916
0.8633000 1.01406 0.04059
0.8650000 0.98414 0.05002
0.8667000 1.02424 0.05201
0.8683000 1.04928 0.04095
0.8700000 1.04209 0.03683
0.8716000 1.00010 0.03479
0.8733000 1.02085 0.03456
0.8749000 1.03880 0.04195
0.8766000 1.01377 0.05807
0.8782000 0.98763 0.05035
0.8799000 0.99401 0.03914
0.8815000 0.95192 0.04557
0.8832000 1.06873 0.06089
0.8848000 1.01347 0.04395
0.8865000 1.02105 0.04464
0.8882000 1.02125 0.05211
0.8898000 1.03202 0.05004
0.8915000 0.92090 0.05961
0.8931000 0.94274 0.04788
0.8948000 0.88209 0.05734
0.8964000 0.97117 0.05578
0.8981000 0.87212 0.04848
