Asteroid designations ( Number, Name, Temporary designation): 268, Adorea, 
Observation was done on (UT) (format YYYY-MM-DD-hh): 2012 - 02 - 20 - 06:10
Observation was made by : Fornasier Sonia E-mail; sonia.fornasier@obspm.fr
At observatory with UAI code: 950
Obsv. comments: uploaded by Simon Anghel
The spectrum was published in the article: http://adsabs.harvard.edu/abs/2016Icar..269....1F
The normalization of this spectrum was made for the wavelength: 0.550 microns.
Original name of the file was: 268 Adorea
Wavelength[um]	Reflectance	sigma(optional)
0.4400000 0.90924
0.4450000 0.92605
0.4500000 0.92941
0.4550000 0.92773
0.4600000 0.94454
0.4650000 0.94454
0.4700000 0.93277
0.4750000 0.94622
0.4800000 0.95798
0.4850000 0.96471
0.4900000 0.96639
0.4950000 0.96975
0.5000000 0.97647
0.5050000 0.97647
0.5100000 0.98151
0.5150000 0.98992
0.5200000 0.98319
0.5250000 0.99496
0.5300000 1.00000
0.5350000 0.99496
0.5400000 1.00840
0.5450000 1.00000
0.5500000 1.00000
0.5550000 1.01008
0.5600000 1.01345
0.5650000 1.00336
0.5700000 1.01008
0.5750000 1.01345
0.5800000 1.01681
0.5850000 1.02521
0.5900000 1.02017
0.5950000 1.01513
0.6000000 1.02521
0.6050000 1.03025
0.6100000 1.03193
0.6150000 1.03193
0.6200000 1.03193
0.6250000 1.03193
0.6300000 1.02521
0.6350000 1.02521
0.6400000 1.03866
0.6450000 1.03697
0.6500000 1.03866
0.6550000 1.04370
0.6600000 1.03697
0.6650000 1.04706
0.6700000 1.05042
0.6750000 1.04370
0.6800000 1.05042
0.6850000 1.06387
0.6900000 1.03193
0.6950000 1.04538
0.7000000 1.06050
0.7050000 1.05042
0.7100000 1.05714
0.7150000 1.06387
0.7200000 1.04706
0.7250000 1.04874
0.7300000 1.04874
0.7350000 1.06891
0.7400000 1.05546
0.7450000 1.06723
0.7500000 1.07563
0.7550000 1.07395
0.7600000 1.05210
0.7650000 0.99160
0.7700000 1.06891
0.7750000 1.08067
0.7800000 1.07563
0.7850000 1.08235
0.7900000 1.08067
0.7950000 1.08571
0.8000000 1.08067
0.8050000 1.08067
0.8100000 1.07899
0.8150000 1.08403
0.8200000 1.07395
0.8250000 1.07731
0.8300000 1.08739
0.8350000 1.08235
0.8400000 1.08739
0.8450000 1.09244
0.8500000 1.09580
0.8550000 1.09580
0.8600000 1.07563
0.8650000 1.08067
0.8700000 1.09244
0.8750000 1.08235
0.8800000 1.08067
0.8850000 1.08739
0.8900000 1.09748
0.8950000 1.10756
0.9000000 1.08739
0.9050000 1.08403
0.9100000 1.08403
0.9150000 1.08908
0.9200000 1.07395
0.9250000 1.07563
0.9300000 1.06555
0.9350000 1.07731
0.9400000 1.07395
0.9450000 1.08571
0.9500000 1.08739
0.9550000 1.08739
0.9600000 1.08739
0.9650000 1.08739
0.9700000 1.09748
0.9750000 1.09916
0.9800000 1.09916
0.9850000 1.10924
0.9900000 1.11092
0.9950000 1.11092
1.0000000 1.11092
1.0050000 1.12437
1.0100000 1.12437
1.0150000 1.10924
1.0200000 1.12437
1.0250000 1.12437
1.0300000 1.11765
1.0350000 1.11092
1.0400000 1.12605
1.0450000 1.12437
1.0500000 1.13445
1.0550000 1.13613
1.0600000 1.13613
1.0650000 1.13613
1.0700000 1.13613
1.0750000 1.13613
1.0800000 1.13613
1.0850000 1.13613
1.0900000 1.13613
1.0950000 1.13445
1.1000000 1.12437
1.1050000 1.12773
1.1100000 1.11933
1.1150000 1.11261
1.1200000 1.10084
1.1250000 1.11261
1.1300000 1.11092
1.1350000 1.11092
1.1400000 1.11765
1.1450000 1.11261
1.1500000 1.10420
1.1550000 1.11092
1.1600000 1.12437
1.1650000 1.12437
1.1700000 1.12437
1.1750000 1.12437
1.1800000 1.12437
1.1850000 1.12437
1.1900000 1.12437
1.1950000 1.12437
1.2000000 1.12437
1.2050000 1.12437
1.2100000 1.12437
1.2150000 1.12437
1.2200000 1.13109
1.2250000 1.12437
1.2300000 1.13613
1.2350000 1.14958
1.2400000 1.14958
1.2450000 1.13613
1.2500000 1.13613
1.2550000 1.14958
1.2600000 1.15630
1.2650000 1.16134
1.2700000 1.16303
1.2750000 1.14790
1.2800000 1.15798
1.2850000 1.16975
1.2900000 1.16134
1.2950000 1.16303
1.3000000 1.15630
1.3050000 1.16134
1.3100000 1.17143
1.3150000 1.17311
1.3200000 1.16975
1.3250000 1.15798
1.3300000 1.12941
1.3350000 1.13109
1.3400000 1.15126
1.3450000 1.15966
1.3500000 1.17815
1.3550000 1.18824
1.3600000 1.19832
1.3650000 1.19832
1.3700000 1.20336
1.3750000 1.21513
1.3800000 1.22353
1.3850000 1.21008
1.3900000 1.22353
1.3950000 1.22353
1.4000000 1.22353
1.4050000 1.22857
1.4100000 1.23529
1.4150000 1.23361
1.4200000 1.24874
1.4250000 1.24706
1.4300000 1.24538
1.4350000 1.26050
1.4400000 1.26555
1.4450000 1.25714
1.4500000 1.27227
1.4550000 1.27227
1.4600000 1.27563
1.4650000 1.28403
1.4700000 1.28403
1.4750000 1.28403
1.4800000 1.28403
1.4850000 1.28403
1.4900000 1.28403
1.4950000 1.28403
1.5000000 1.29748
1.5050000 1.29748
1.5100000 1.29580
1.5150000 1.30924
1.5200000 1.32101
1.5250000 1.32269
1.5300000 1.31597
1.5350000 1.32101
1.5400000 1.33445
1.5450000 1.33445
1.5500000 1.33445
1.5550000 1.33445
1.5600000 1.33445
1.5650000 1.33277
1.5700000 1.33277
1.5750000 1.33782
1.5800000 1.34454
1.5850000 1.35966
1.5900000 1.35294
1.5950000 1.35798
1.6000000 1.36471
1.6050000 1.35798
1.6100000 1.35798
1.6150000 1.35798
1.6200000 1.37311
1.6250000 1.36471
1.6300000 1.37479
1.6350000 1.38319
1.6400000 1.38319
1.6450000 1.38151
1.6500000 1.39664
1.6550000 1.39496
1.6600000 1.39496
1.6650000 1.39496
1.6700000 1.39496
1.6750000 1.39664
1.6800000 1.40840
1.6850000 1.40840
1.6900000 1.40840
1.6950000 1.40840
1.7000000 1.40840
1.7050000 1.40672
1.7100000 1.41849
1.7150000 1.41849
1.7200000 1.43361
1.7250000 1.43025
1.7300000 1.44538
1.7350000 1.44538
1.7400000 1.44538
1.7450000 1.44538
1.7500000 1.45714
1.7550000 1.45882
1.7600000 1.44538
1.7650000 1.45714
1.7700000 1.47227
1.7750000 1.45714
1.7800000 1.47059
1.7850000 1.46891
1.7900000 1.46891
1.7950000 1.46891
1.8000000 1.46891
1.8050000 1.46891
1.8100000 1.48235
1.8150000 1.49412
1.8200000 1.49244
1.8250000 1.51765
1.8300000 1.50756
1.8350000 1.50588
1.8400000 1.47227
1.8450000 1.47227
1.8500000 1.51429
1.8550000 1.51933
1.8600000 1.51765
1.8650000 1.51597
1.8700000 1.48739
1.8750000 1.50588
1.8800000 1.50924
1.8850000 1.53109
1.8900000 1.53109
1.8950000 1.53782
1.9000000 1.54958
1.9050000 1.53445
1.9100000 1.56134
1.9150000 1.57815
1.9200000 1.57983
1.9250000 1.57983
1.9300000 1.56975
1.9350000 1.57479
1.9400000 1.58655
1.9450000 1.57479
1.9500000 1.59328
1.9550000 1.59328
1.9600000 1.58319
1.9650000 1.59160
1.9700000 1.59160
1.9750000 1.59328
1.9800000 1.59328
1.9850000 1.59496
1.9900000 1.60504
1.9950000 1.60504
2.0000000 1.65210
2.0050000 1.64202
2.0100000 1.63025
2.0150000 1.61008
2.0200000 1.62857
2.0250000 1.62857
2.0300000 1.60504
2.0350000 1.63361
2.0400000 1.62857
2.0450000 1.63025
2.0500000 1.63866
2.0550000 1.65378
2.0600000 1.66555
2.0650000 1.65882
2.0700000 1.66723
2.0750000 1.66555
2.0800000 1.66723
2.0850000 1.66723
2.0900000 1.67563
2.0950000 1.69076
2.1000000 1.67899
2.1050000 1.67899
2.1100000 1.67899
2.1150000 1.67899
2.1200000 1.68067
2.1250000 1.69076
2.1300000 1.69076
2.1350000 1.69076
2.1400000 1.69076
2.1450000 1.71261
2.1500000 1.71597
2.1550000 1.71597
2.1600000 1.71765
2.1650000 1.72773
2.1700000 1.71092
2.1750000 1.72605
2.1800000 1.72269
2.1850000 1.71597
2.1900000 1.71765
2.1950000 1.72773
2.2000000 1.72773
2.2050000 1.72773
2.2100000 1.72773
2.2150000 1.74286
2.2200000 1.73445
2.2250000 1.75126
2.2300000 1.75294
2.2350000 1.75294
2.2400000 1.75294
2.2450000 1.75462
2.2500000 1.76975
2.2550000 1.77983
2.2600000 1.76471
2.2650000 1.77647
2.2700000 1.78151
2.2750000 1.78992
2.2800000 1.79160
2.2850000 1.77647
2.2900000 1.75630
2.2950000 1.73277
2.3000000 1.74790
2.3050000 1.78655
2.3100000 1.78992
2.3150000 1.78319
2.3200000 1.79328
2.3250000 1.80336
2.3300000 1.81345
2.3350000 1.80336
2.3400000 1.81345
2.3450000 1.80168
2.3500000 1.80168
2.3550000 1.81513
2.3600000 1.81345
2.3650000 1.81345
2.3700000 1.81513
2.3750000 1.79328
2.3800000 1.80840
2.3850000 1.79832
2.3900000 1.76975
2.3950000 1.79664
2.4000000 1.82521
