Asteroid designations ( Number, Name, Temporary designation): 1027, Aesculapia,  A923 VG, A899 PE, A908 AE, 1942 DH, 1977 LP1
Observation was done on (UT) (format YYYY-MM-DD-hh): 2012 - 12 - 18 - 20:23
Observation was made by : Fornasier Sonia E-mail; sonia.fornasier@obspm.fr
At observatory with UAI code: 950
Obsv. comments: uploaded by Simon Anghel
The spectrum was published in the article: http://adsabs.harvard.edu/abs/2016Icar..269....1F
The normalization of this spectrum was made for the wavelength: 0.550 microns.
Original name of the file was: 1027 Aesculapia
Wavelength[um]	Reflectance	sigma(optional)
0.530    0.942
0.535    0.937
0.540    0.939
0.545    0.967
0.550    0.967
0.555    0.966
0.560    0.965
0.565    0.986
0.570    0.979
0.575    0.985
0.580    0.989
0.585    0.994
0.590    0.979
0.595    0.998
0.600    0.997
0.605    0.992
0.610    1.000
0.615    0.993
0.620    0.999
0.625    0.994
0.630    1.000
0.635    0.991
0.640    0.996
0.645    1.002
0.650    0.999
0.655    1.000
0.660    1.002
0.665    1.000
0.670    0.994
0.675    0.997
0.680    1.001
0.685    0.989
0.690    0.982
0.695    0.990
0.700    0.986
0.705    0.987
0.710    0.985
0.715    0.991
0.720    0.968
0.725    0.986
0.730    0.980
0.735    0.979
0.740    0.979
0.745    0.989
0.750    0.990
0.755    0.984
0.760    0.961
0.765    0.962
0.770    0.976
0.775    0.972
0.780    0.981
0.785    0.969
0.790    0.973
0.795    0.962
0.800    0.973
0.805    0.970
0.810    0.976
0.815    0.941
0.820    0.963
0.825    0.968
0.830    0.974
0.835    0.949
0.840    0.969
0.845    0.983
0.850    0.972
0.855    0.964
0.860    0.971
0.865    0.955
0.870    0.963
0.875    0.964
0.880    0.956
0.885    0.971
0.890    0.974
0.895    0.964
0.900    0.962
0.905    0.962
0.910    0.962
0.915    0.963
0.920    0.962
0.925    0.962
0.930    0.949
0.935    0.967
0.940    0.977
0.945    0.970
0.950    0.958
0.955    0.963
0.960    0.978
0.965    0.970
0.970    0.986
0.975    0.970
0.980    0.969
0.985    0.975
0.990    0.975
0.995    0.969
1.000    0.967
1.005    0.962
1.010    0.975
1.015    0.982
1.020    0.965
1.025    0.953
1.030    0.949
1.035    0.957
1.040    0.977
1.045    0.983
1.050    0.974
1.055    0.969
1.060    0.974
1.065    0.962
1.070    0.955
1.075    0.964
1.080    0.973
1.085    0.976
1.090    0.980
1.095    0.988
1.100    0.987
1.105    0.977
1.110    0.966
1.115    0.958
1.120    0.955
1.125    0.956
1.130    0.960
1.135    0.964
1.140    0.969
1.145    0.973
1.150    0.975
1.155    0.976
1.160    0.976
1.165    0.987
1.170    1.002
1.175    0.982
1.180    0.976
1.185    0.977
1.190    0.986
1.195    0.986
1.200    0.983
1.205    0.984
1.210    0.992
1.215    1.000
1.220    1.002
1.225    0.996
1.230    0.992
1.235    0.991
1.240    0.990
1.245    0.991
1.250    1.002
1.255    1.006
1.260    1.004
1.265    1.003
1.270    1.002
1.275    0.995
1.280    0.989
1.285    0.996
1.290    1.017
1.295    1.015
1.300    1.003
1.440    1.021
1.445    1.026
1.450    1.034
1.455    1.036
1.460    1.018
1.465    1.015
1.470    1.022
1.475    1.031
1.480    1.036
1.485    1.029
1.490    1.016
1.495    1.025
1.500    1.044
1.505    1.037
1.510    1.018
1.515    1.018
1.520    1.026
1.525    1.030
1.530    1.029
1.535    1.027
1.540    1.024
1.545    1.023
1.550    1.023
1.555    1.026
1.560    1.033
1.565    1.043
1.570    1.050
1.575    1.046
1.580    1.041
1.585    1.034
1.590    1.025
1.595    1.023
1.600    1.023
1.605    1.045
1.610    1.065
1.615    1.057
1.620    1.046
1.625    1.046
1.630    1.057
1.635    1.048
1.640    1.037
1.645    1.037
1.650    1.038
1.655    1.037
1.660    1.033
1.665    1.025
1.670    1.018
1.675    1.016
1.680    1.021
1.685    1.031
1.690    1.048
1.695    1.053
1.700    1.050
1.705    1.053
1.710    1.064
1.715    1.070
1.720    1.062
1.725    1.059
1.730    1.060
1.735    1.062
1.740    1.063
1.745    1.066
1.750    1.075
1.755    1.083
1.760    1.084
1.765    1.079
1.920    1.093
1.925    1.087
1.930    1.080
1.935    1.087
1.940    1.098
1.945    1.105
1.950    1.110
1.955    1.112
1.960    1.112
1.965    1.109
1.970    1.106
1.975    1.101
1.980    1.095
1.985    1.088
1.990    1.083
1.995    1.083
2.000    1.086
2.005    1.096
2.010    1.104
2.015    1.096
2.020    1.085
2.025    1.086
2.030    1.092
2.035    1.091
2.040    1.087
2.045    1.084
2.050    1.083
2.055    1.083
2.060    1.083
2.065    1.085
2.070    1.089
2.075    1.095
2.080    1.102
2.085    1.112
2.090    1.117
2.095    1.107
2.100    1.096
2.105    1.101
2.110    1.111
2.115    1.111
2.120    1.100
