Asteroid designations ( Number, Name, Temporary designation): 2519, Annagerman,  1975 VD2, J75V02D, 1958 RA, J58R00A, 1958 RK, J58R00K, 1964 TL, J64T00L, 1964 VT, J64V00T, 1977 BG, J77B00G, 1979 JJ, J79J00J
Observation was done on (UT) (format YYYY-MM-DD-hh): 2012 - 02 - 19 - 03:00
Observation was made by : Fornasier Sonia E-mail; sonia.fornasier@obspm.fr
At observatory with UAI code: 950
Obsv. comments: uploaded by Simon Anghel
The spectrum was published in the article: http://adsabs.harvard.edu/abs/2016Icar..269....1F
The normalization of this spectrum was made for the wavelength: 0.550 microns.
Original name of the file was: 2519_Annagerman.csv
Wavelength[um]	Reflectance	sigma(optional)
0.4100000 0.89510
0.4150000 0.90509
0.4200000 0.90210
0.4250000 0.89111
0.4300000 0.89510
0.4350000 0.90110
0.4400000 0.92807
0.4450000 0.94106
0.4500000 0.94006
0.4550000 0.96004
0.4600000 0.95804
0.4650000 0.97902
0.4700000 0.97103
0.4750000 0.96104
0.4800000 0.96503
0.4850000 0.97502
0.4900000 0.98701
0.4950000 0.97502
0.5000000 0.98002
0.5050000 0.98701
0.5100000 0.98901
0.5150000 1.01099
0.5200000 1.00200
0.5250000 1.00000
0.5300000 0.99700
0.5350000 0.99800
0.5400000 1.00799
0.5450000 1.00300
0.5500000 1.00000
0.5550000 1.00400
0.5600000 0.99600
0.5650000 1.00999
0.5700000 0.99900
0.5750000 1.01898
0.5800000 1.02198
0.5850000 1.02198
0.5900000 1.00799
0.5950000 1.02398
0.6000000 1.02697
0.6050000 1.02897
0.6100000 1.03996
0.6150000 1.02597
0.6200000 1.02498
0.6250000 1.03696
0.6300000 1.03896
0.6350000 1.02298
0.6400000 1.03996
0.6450000 1.03896
0.6500000 1.04196
0.6550000 1.03896
0.6600000 1.03397
0.6650000 1.02597
0.6700000 1.02298
0.6750000 1.02198
0.6800000 1.03197
0.6850000 1.01798
0.6900000 1.01199
0.6950000 1.02098
0.7000000 1.02997
0.7050000 1.00899
0.7100000 1.01499
0.7150000 1.01998
0.7200000 1.02797
0.7250000 1.03097
0.7300000 1.03097
0.7350000 1.01399
0.7400000 1.00899
0.7450000 1.01898
0.7500000 1.01998
0.7550000 1.02198
0.7600000 0.99900
0.7650000 0.97502
0.7700000 1.00699
0.7750000 1.00599
0.7800000 1.00699
0.7850000 1.00699
0.7900000 1.00699
0.7950000 0.98402
0.8000000 0.99500
0.8050000 0.98302
0.8100000 1.00200
0.8150000 1.00300
0.8200000 0.99800
0.8250000 0.98901
0.8300000 1.00300
0.8350000 1.00799
0.8400000 0.97403
0.8450000 0.94905
0.8500000 1.00599
0.8550000 0.97902
0.8600000 0.98501
0.8650000 0.97602
0.8700000 0.97602
0.8750000 0.99800
0.8800000 0.99401
0.8850000 0.93906
0.8900000 0.91109
0.8950000 1.03896
0.9000000 0.96004
0.9050000 0.96903
0.9100000 0.99001
0.9150000 0.97502
0.9200000 0.99401
0.9250000 0.96304
0.9300000 0.98601
0.9350000 0.98302
0.9400000 0.96703
0.9450000 0.97502
0.9500000 0.96803
0.9550000 0.95405
0.9600000 0.96603
0.9650000 0.98002
0.9700000 0.98002
0.9750000 0.96603
0.9800000 0.90909
0.9850000 0.92408
0.9900000 0.98801
0.9950000 1.00300
1.0000000 0.98302
1.0050000 1.00300
1.0100000 0.99700
1.0150000 0.97103
1.0200000 0.97303
1.0250000 0.92308
1.0300000 0.92408
1.0350000 0.96404
1.0400000 0.97403
1.0450000 0.95804
1.0500000 0.95205
1.0550000 0.95105
1.0600000 0.93407
1.0650000 0.92208
1.0700000 0.92607
1.0750000 0.96703
1.0800000 0.96304
1.0850000 0.95504
1.0900000 0.97802
1.0950000 0.99301
1.1000000 0.91409
1.1050000 0.92008
1.1100000 0.92507
1.1150000 0.91608
1.1200000 0.91109
1.1250000 0.95005
1.1300000 0.95904
1.1350000 0.96903
1.1400000 0.97902
1.1450000 0.96703
1.1500000 0.94406
1.1550000 0.92507
1.1600000 0.91508
1.1650000 0.91209
1.1700000 0.92308
1.1750000 0.94805
1.1800000 0.97303
1.1850000 0.97902
1.1900000 0.97602
1.1950000 0.93806
1.2000000 0.94406
1.2050000 0.96204
1.2100000 0.98901
1.2150000 0.98501
1.2200000 0.96204
1.2250000 0.92208
1.2300000 0.90509
1.2350000 0.90909
1.2400000 0.93407
1.2450000 0.94206
1.2500000 0.93307
1.2550000 0.94505
1.2600000 0.95604
1.2650000 0.96703
1.2700000 0.97602
1.2750000 0.98302
1.2800000 0.96703
1.2850000 0.94705
1.2900000 0.94605
1.2950000 0.95804
1.3000000 0.95704
1.3050000 0.93407
1.3100000 0.93407
1.3150000 0.95205
1.3200000 0.95804
1.3250000 0.95704
1.3300000 0.92008
1.3350000 0.90609
1.3400000 0.92507
1.3450000 0.93906
1.3500000 0.95305
1.3550000 0.97502
1.3600000 1.00000
1.3650000 1.02098
1.3700000 1.03097
1.3750000 1.01199
1.3800000 0.99001
1.3850000 0.95105
1.3900000 0.95105
1.3950000 0.96404
1.4000000 0.97203
1.4050000 0.97203
1.4100000 0.96404
1.4150000 0.95305
1.4200000 0.94206
1.4250000 0.93906
1.4300000 0.95005
1.4350000 0.94306
1.4400000 0.92208
1.4450000 0.90310
1.4500000 0.88911
1.4550000 0.91009
1.4600000 0.94805
1.4650000 0.97702
1.4700000 1.00100
1.4750000 0.98701
1.4800000 0.96204
1.4850000 0.95504
1.4900000 0.96703
1.4950000 0.99800
1.5000000 1.01998
1.5050000 0.98402
1.5100000 0.95105
1.5150000 0.93007
1.5200000 0.91608
1.5250000 0.94206
1.5300000 0.96104
1.5350000 0.95405
1.5400000 0.94106
1.5450000 0.93007
1.5500000 0.93207
1.5550000 0.96304
1.5600000 0.98601
1.5650000 0.99600
1.5700000 1.00699
1.5750000 1.02398
1.5800000 1.04296
1.5850000 1.04396
1.5900000 1.02498
1.5950000 0.99401
1.6000000 0.96503
1.6050000 0.93706
1.6100000 0.92707
1.6150000 0.96404
1.6200000 0.99900
1.6250000 1.01399
1.6300000 1.02098
1.6350000 0.99900
1.6400000 0.97003
1.6450000 0.92907
1.6500000 0.89411
1.6550000 0.92607
1.6600000 0.96104
1.6650000 0.98801
1.6700000 1.01199
1.6750000 0.99800
1.6800000 0.98601
1.6850000 1.00200
1.6900000 1.01499
1.6950000 1.01898
1.7000000 1.00999
1.7050000 0.99101
1.7100000 0.96703
1.7150000 0.95804
1.7200000 0.95604
1.7250000 0.95704
1.7300000 0.95904
1.7350000 0.95904
1.7400000 0.96004
1.7450000 0.97003
1.7500000 0.98901
1.7550000 0.99201
1.7600000 0.98102
1.7650000 0.97502
1.7700000 0.97602
1.7750000 0.98202
1.7800000 0.99201
1.7850000 0.98402
1.7900000 0.94406
1.7950000 0.91808
1.8000000 0.94505
1.8050000 0.97103
1.8100000 0.98901
1.8150000 0.99900
1.8200000 0.97502
1.8250000 0.95205
1.8300000 0.96503
1.8350000 0.96503
1.8400000 0.94505
1.8450000 0.92408
1.8500000 0.92807
1.8550000 0.94505
1.8600000 0.94505
1.8650000 0.94505
1.8700000 0.95904
1.8750000 0.97303
1.8800000 0.97203
1.8850000 0.96404
1.8900000 0.96004
1.8950000 0.97103
1.9000000 1.00599
1.9050000 1.05495
1.9100000 1.06194
1.9150000 1.04695
1.9200000 1.01199
1.9250000 0.97303
1.9300000 0.95504
1.9350000 0.96903
1.9400000 0.99101
1.9450000 1.01399
1.9500000 1.01798
1.9550000 0.99101
1.9600000 0.98102
1.9650000 1.00999
1.9700000 1.01798
1.9750000 0.98202
1.9800000 0.96204
1.9850000 0.97303
1.9900000 0.98701
1.9950000 1.00200
2.0000000 1.01199
2.0050000 1.00300
2.0100000 0.99401
2.0150000 0.97003
2.0200000 0.95504
2.0250000 0.96503
2.0300000 0.97902
2.0350000 0.99301
2.0400000 1.01499
2.0450000 1.03497
2.0500000 1.05095
2.0550000 1.06194
2.0600000 1.06094
2.0650000 0.99600
2.0700000 0.94006
2.0750000 0.92108
2.0800000 0.90609
2.0850000 0.92507
2.0900000 0.94905
2.0950000 0.97602
2.1000000 1.00799
2.1050000 1.04595
2.1100000 1.06593
2.1150000 1.06194
2.1200000 1.05195
2.1250000 1.03996
2.1300000 1.04296
2.1350000 1.05894
2.1400000 1.06294
2.1450000 1.03097
2.1500000 0.99401
2.1550000 0.95105
2.1600000 0.91508
2.1650000 0.90809
2.1700000 0.93007
2.1750000 0.97802
2.1800000 1.00999
2.1850000 1.01199
2.1900000 1.01499
2.1950000 1.02298
2.2000000 1.02098
2.2050000 1.00999
2.2100000 0.98801
2.2150000 0.96903
2.2200000 0.96503
2.2250000 0.97303
2.2300000 0.96404
2.2350000 0.95405
2.2400000 0.93606
2.2450000 0.92507
2.2500000 0.93806
2.2550000 0.96004
2.2600000 0.98102
2.2650000 0.99500
2.2700000 0.97303
2.2750000 0.97303
2.2800000 0.99301
2.2850000 1.02597
2.2900000 1.06693
2.2950000 1.05594
2.3000000 1.01998
2.3050000 1.03297
2.3100000 1.06094
2.3150000 1.04096
2.3200000 1.01099
2.3250000 1.00599
2.3300000 1.01199
2.3350000 1.02697
2.3400000 1.03996
2.3450000 1.03996
2.3500000 1.02897
2.3550000 1.01299
2.3600000 1.01499
2.3650000 1.02697
