Asteroid designations ( Number, Name, Temporary designation): 90, Antiope,  1952 BK2, J52B02K
Observation was done on (UT) (format YYYY-MM-DD-hh): 2012 - 12 - 18 - 01:00
Observation was made by : Fornasier Sonia E-mail; sonia.fornasier@obspm.fr
At observatory with UAI code: 950
Obsv. comments: uploaded by Simon Anghel
The spectrum was published in the article: http://adsabs.harvard.edu/abs/2016Icar..269....1F
The normalization of this spectrum was made for the wavelength: 0.550 microns.
Original name of the file was: 90 Antiope
Wavelength[um]	Reflectance	sigma(optional)
0.4500000 0.98810
0.4550000 0.99206
0.4600000 0.99008
0.4650000 0.99405
0.4700000 0.99504
0.4750000 0.99206
0.4800000 0.99206
0.4850000 0.99008
0.4900000 0.99901
0.4950000 0.99901
0.5000000 0.99603
0.5050000 0.99504
0.5100000 0.99702
0.5150000 0.99901
0.5200000 0.99504
0.5250000 1.00000
0.5300000 0.99504
0.5350000 0.99306
0.5400000 0.99306
0.5450000 0.99107
0.5500000 1.00000
0.5550000 0.99504
0.5600000 0.99504
0.5650000 0.99405
0.5700000 0.98810
0.5750000 0.98810
0.5800000 0.98810
0.5850000 0.98413
0.5900000 0.98413
0.5950000 0.98810
0.6000000 0.98810
0.6050000 0.99206
0.6100000 0.99107
0.6150000 0.98810
0.6200000 0.98710
0.6250000 0.98810
0.6300000 0.98413
0.6350000 0.98810
0.6400000 0.98413
0.6450000 0.98413
0.6500000 0.98016
0.6550000 0.97619
0.6600000 0.98512
0.6650000 0.98413
0.6700000 0.98016
0.6750000 0.97917
0.6800000 0.97718
0.6850000 0.97421
0.6900000 0.97718
0.6950000 0.97718
0.7000000 0.97718
0.7050000 0.97718
0.7100000 0.97718
0.7150000 0.97619
0.7200000 0.97321
0.7250000 0.96925
0.7300000 0.97123
0.7350000 0.97321
0.7400000 0.98016
0.7450000 0.97718
0.7500000 0.97817
0.7550000 0.97321
0.7600000 0.97321
0.7650000 0.97222
0.7700000 0.98016
0.7750000 0.97718
0.7800000 0.97024
0.7850000 0.97421
0.7900000 0.97321
0.7950000 0.97421
0.8000000 0.97321
0.8050000 0.97718
0.8100000 0.97421
0.8150000 0.96528
0.8200000 0.97421
0.8250000 0.97321
0.8300000 0.97321
0.8350000 0.97321
0.8400000 0.96925
0.8450000 0.97718
0.8500000 0.98413
0.8550000 0.97321
0.8600000 0.97123
0.8650000 0.97123
0.8700000 0.96230
0.8750000 0.97024
0.8800000 0.97321
0.8850000 0.97817
0.8900000 0.95734
0.8950000 0.95139
0.9000000 0.97421
0.9050000 0.95933
0.9100000 0.96230
0.9150000 0.95635
0.9200000 0.96131
0.9250000 0.96131
0.9300000 0.97024
0.9350000 0.98016
0.9400000 0.95437
0.9450000 0.97817
0.9500000 0.99504
0.9550000 0.97321
0.9600000 0.96131
0.9650000 0.96429
0.9700000 0.97222
0.9750000 0.96925
0.9800000 0.95635
0.9850000 0.97321
0.9900000 0.98115
0.9950000 0.98611
1.0000000 0.98512
1.0050000 0.97718
1.0100000 0.97917
1.0150000 0.97619
1.0200000 0.97619
1.0250000 0.97718
1.0300000 0.97321
1.0350000 0.96528
1.0400000 0.96329
1.0450000 0.97917
1.0500000 0.99306
1.0550000 0.97917
1.0600000 0.96726
1.0650000 0.96825
1.0700000 0.97718
1.0750000 0.97817
1.0800000 0.98710
1.0850000 0.97421
1.0900000 0.98313
1.0950000 0.99405
1.1000000 0.98413
1.1050000 0.99008
1.1100000 0.99107
1.1150000 0.99206
1.1200000 0.99504
1.1250000 1.00298
1.1300000 0.99008
1.1350000 0.99901
1.1400000 1.00794
1.1450000 0.99802
1.1500000 1.00298
1.1550000 1.01190
1.1600000 1.00694
1.1650000 0.98413
1.1700000 0.97222
1.1750000 0.97222
1.1800000 0.98710
1.1850000 1.00496
1.1900000 1.00794
1.1950000 0.98810
1.2000000 1.00298
1.2050000 1.00198
1.2100000 0.99405
1.2150000 0.99008
1.2200000 0.99405
1.2250000 1.01587
1.2300000 0.99901
1.2350000 0.99306
1.2400000 1.00794
1.2450000 1.01290
1.2500000 1.01488
1.2550000 1.03075
1.2600000 1.02480
1.2650000 1.01488
1.2700000 1.01389
1.2750000 1.01190
1.2800000 0.99603
1.2850000 1.00298
1.2900000 1.01290
1.2950000 1.01290
1.3000000 1.01290
1.3050000 1.00694
1.3100000 1.00595
1.3150000 1.00595
1.3200000 1.01984
1.3250000 1.02381
1.3300000 1.01488
1.3350000 1.00794
1.3400000 0.99504
1.3450000 1.00893
1.3500000 1.02679
1.3550000 1.03472
1.3600000 1.04663
1.3650000 1.05754
1.3700000 1.05655
1.3750000 1.05754
1.3800000 1.05357
1.3850000 1.04563
1.3900000 1.06944
1.3950000 1.09226
1.4000000 1.10020
1.4050000 1.10317
1.4100000 1.09425
1.4150000 1.07937
1.4200000 1.05952
1.4250000 1.05952
1.4300000 1.07044
1.4350000 1.08234
1.4400000 1.10417
1.4450000 1.08631
1.4500000 1.06845
1.4550000 1.07242
1.4600000 1.07143
1.4650000 1.08036
1.4700000 1.08631
1.4750000 1.08631
1.4800000 1.08135
1.4850000 1.07738
1.4900000 1.07143
1.4950000 1.08135
1.5000000 1.08631
1.5050000 1.08631
1.5100000 1.08631
1.5150000 1.08631
1.5200000 1.08631
1.5250000 1.08631
1.5300000 1.08631
1.5350000 1.09821
1.5400000 1.10119
1.5450000 1.09425
1.5500000 1.09325
1.5550000 1.09325
1.5600000 1.09425
1.5650000 1.08532
1.5700000 1.08631
1.5750000 1.08631
1.5800000 1.08730
1.5850000 1.09623
1.5900000 1.10218
1.5950000 1.09325
1.6000000 1.09325
1.6050000 1.09921
1.6100000 1.10020
1.6150000 1.11111
1.6200000 1.11012
1.6250000 1.09821
1.6300000 1.09623
1.6350000 1.10913
1.6400000 1.11806
1.6450000 1.12500
1.6500000 1.12996
1.6550000 1.12202
1.6600000 1.12202
1.6650000 1.12302
1.6700000 1.12302
1.6750000 1.11508
1.6800000 1.11508
1.6850000 1.11806
1.6900000 1.12202
1.6950000 1.11210
1.7000000 1.10714
1.7050000 1.11508
1.7100000 1.12103
1.7150000 1.12202
1.7200000 1.12202
1.7250000 1.12202
1.7300000 1.12302
1.7350000 1.12202
1.7400000 1.12202
1.7450000 1.12996
1.7500000 1.14087
1.7550000 1.13095
1.7600000 1.12004
1.7650000 1.11806
1.7700000 1.12698
1.7750000 1.12996
1.7800000 1.12996
1.7850000 1.12897
1.7900000 1.12897
1.7950000 1.12798
1.8000000 1.12202
1.8050000 1.12401
2.0200000 1.18056
2.0250000 1.18056
2.0300000 1.19048
2.0350000 1.20238
2.0400000 1.21032
2.0450000 1.21032
2.0500000 1.21230
2.0550000 1.21627
2.0600000 1.21825
2.0650000 1.23810
2.0700000 1.24306
2.0750000 1.23115
2.0800000 1.22321
2.0850000 1.21726
2.0900000 1.22024
2.0950000 1.22421
2.1000000 1.22718
2.1050000 1.22222
2.1100000 1.22024
2.1150000 1.22421
2.1200000 1.22321
2.1250000 1.21131
2.1300000 1.21032
2.1350000 1.22520
2.1400000 1.22619
2.1450000 1.21925
2.1500000 1.21726
2.1550000 1.21429
2.1600000 1.22222
2.1650000 1.23115
2.1700000 1.22619
2.1750000 1.21627
2.1800000 1.21726
2.1850000 1.21726
2.1900000 1.23512
2.1950000 1.25595
2.2000000 1.24802
2.2050000 1.23909
2.2100000 1.24008
2.2150000 1.23115
2.2200000 1.23214
2.2250000 1.22817
2.2300000 1.23214
2.2350000 1.23313
2.2400000 1.24405
2.2450000 1.24306
2.2500000 1.21925
2.2550000 1.21131
2.2600000 1.22718
2.2650000 1.23313
2.2700000 1.23512
2.2750000 1.23611
2.2800000 1.24008
2.2850000 1.24901
2.2900000 1.27083
2.2950000 1.26290
2.3000000 1.25000
2.3050000 1.25397
2.3100000 1.25694
2.3150000 1.24405
2.3200000 1.23413
2.3250000 1.22421
2.3300000 1.22817
2.3350000 1.24405
2.3400000 1.24603
2.3450000 1.24603
2.3500000 1.24603
2.3550000 1.24504
2.3600000 1.25397
2.3650000 1.25397
2.3700000 1.24901
2.3750000 1.24603
2.3800000 1.24603
2.3850000 1.24603
2.3900000 1.24603
2.3950000 1.24603
2.4000000 1.24603
