Asteroid designations ( Number, Name, Temporary designation): 62, Erato,  1906 BE, J06B00E, 1907 GE, J07G00E, 1910 VA, J10V00A, 1935 FW, J35F00W, 1953 OS, J53O00S, 2002 JN104, K02JA4N
Observation was done on (UT) (format YYYY-MM-DD-hh): 2012 - 02 - 19 - 05:47
Observation was made by : Fornasier Sonia E-mail; sonia.fornasier@obspm.fr
At observatory with UAI code: 950
Obsv. comments: uploaded by Simon Anghel
The spectrum was published in the article: http://adsabs.harvard.edu/abs/2016Icar..269....1F
The normalization of this spectrum was made for the wavelength: 0.550 microns.
Original name of the file was: 62 Erato
Wavelength[um]	Reflectance	sigma(optional)
0.5090000 1.02909
0.5140000 1.01705
0.5190000 1.02106
0.5240000 1.02207
0.5290000 1.01003
0.5340000 1.00401
0.5390000 1.00802
0.5440000 1.00100
0.5490000 1.00000
0.5540000 0.99498
0.5590000 0.98897
0.5640000 0.98897
0.5690000 0.98696
0.5740000 0.98897
0.5790000 0.98596
0.5840000 0.97994
0.5890000 0.97793
0.5940000 0.97894
0.5990000 0.97091
0.6040000 0.97793
0.6090000 0.97192
0.6140000 0.96690
0.6190000 0.97392
0.6240000 0.97192
0.6290000 0.96991
0.6340000 0.96790
0.6390000 0.96489
0.6440000 0.96690
0.6490000 0.97392
0.6540000 0.96690
0.6590000 0.96389
0.6640000 0.96189
0.6690000 0.96088
0.6740000 0.96088
0.6790000 0.96189
0.6840000 0.95587
0.6890000 0.95787
0.6940000 0.95988
0.6990000 0.94885
0.7040000 0.96189
0.7090000 0.95587
0.7140000 0.95687
0.7190000 0.96389
0.7240000 0.96389
0.7290000 0.95687
0.7340000 0.95186
0.7390000 0.94885
0.7440000 0.95587
0.7490000 0.95286
0.7540000 0.95286
0.7590000 0.94584
0.7640000 0.96489
0.7690000 0.95386
0.7740000 0.95286
0.7790000 0.95687
0.7840000 0.95085
0.7890000 0.94584
0.7940000 0.94885
0.7990000 0.94784
0.8040000 0.94584
0.8090000 0.94584
0.8140000 0.94584
0.8190000 0.94985
0.8240000 0.95587
0.8290000 0.95587
0.8340000 0.94985
0.8390000 0.93882
0.8440000 0.94383
0.8490000 0.95186
0.8540000 0.95787
0.8590000 0.94985
0.8640000 0.94684
0.8690000 0.94183
0.8740000 0.94283
0.8790000 0.93681
0.8840000 0.93982
0.8890000 0.94283
0.8940000 0.93681
0.8990000 0.93581
0.9040000 0.93581
0.9090000 0.92678
0.9140000 0.92778
0.9190000 0.92778
0.9240000 0.92778
0.9290000 0.92778
0.9340000 0.92778
0.9390000 0.92778
0.9440000 0.92879
0.9490000 0.92578
0.9540000 0.92778
0.9590000 0.92879
0.9640000 0.91976
0.9690000 0.92076
0.9740000 0.92076
0.9790000 0.92076
0.9840000 0.92076
0.9890000 0.92076
0.9940000 0.92177
0.9990000 0.92477
1.0040000 0.92778
1.0090000 0.92879
1.0140000 0.92277
1.0190000 0.92177
1.0240000 0.92177
1.0290000 0.92177
1.0340000 0.92177
1.0390000 0.92177
1.0440000 0.92177
1.0490000 0.92177
1.0540000 0.92177
1.0590000 0.92177
1.0640000 0.92177
1.0690000 0.92177
1.0740000 0.91374
1.0790000 0.91575
1.0840000 0.91675
1.0890000 0.91575
1.0940000 0.91474
1.0990000 0.91474
1.1040000 0.91474
1.1090000 0.91474
1.1140000 0.91474
1.1190000 0.91474
1.1240000 0.91474
1.1290000 0.91474
1.1340000 0.91474
1.1390000 0.91474
1.1440000 0.91474
1.1490000 0.91575
1.1540000 0.92277
1.1590000 0.92277
1.1640000 0.92177
1.1690000 0.92177
1.1740000 0.92177
1.1790000 0.92177
1.1840000 0.92177
1.1890000 0.92177
1.1940000 0.92177
1.1990000 0.92177
1.2040000 0.92177
1.2090000 0.92177
1.2140000 0.92177
1.2190000 0.92177
1.2240000 0.92277
1.2290000 0.92277
1.2340000 0.92277
1.2390000 0.92277
1.2440000 0.92277
1.2490000 0.92076
1.2540000 0.91575
1.2590000 0.90973
1.2640000 0.90772
1.2690000 0.90973
1.2740000 0.91575
1.2790000 0.91474
1.2840000 0.91675
1.2890000 0.92277
1.2940000 0.92277
1.2990000 0.92277
1.3040000 0.92277
1.3090000 0.92277
1.3140000 0.92277
1.3190000 0.92277
1.3240000 0.92277
1.3290000 0.92277
1.3340000 0.91976
1.3390000 0.90973
1.3440000 0.91876
1.3490000 0.89067
1.3540000 0.90471
1.3590000 0.92277
1.3640000 0.92277
1.3690000 0.92277
1.3740000 0.92277
1.3790000 0.92277
1.3840000 0.92277
1.3890000 0.91775
1.3940000 0.92377
1.3990000 0.92277
1.4040000 0.92277
1.4090000 0.92277
1.4140000 0.92979
1.4190000 0.93079
1.4240000 0.92578
1.4290000 0.92277
1.4340000 0.92377
1.4390000 0.92377
1.4440000 0.92377
1.4490000 0.92377
1.4540000 0.93079
1.4590000 0.93180
1.4640000 0.92277
1.4690000 0.92377
1.4740000 0.92377
1.4790000 0.92377
1.4840000 0.92377
1.4890000 0.92377
1.4940000 0.92377
1.4990000 0.91675
1.5040000 0.92477
1.5090000 0.92377
1.5140000 0.92377
1.5190000 0.92477
1.5240000 0.93180
1.5290000 0.93079
1.5340000 0.93079
1.5390000 0.93079
1.5440000 0.93079
1.5490000 0.93079
1.5540000 0.93079
1.5590000 0.93079
1.5640000 0.92678
1.5690000 0.92377
1.5740000 0.92377
1.5790000 0.92477
1.5840000 0.92477
1.5890000 0.92377
1.5940000 0.93180
1.5990000 0.93180
1.6040000 0.93180
1.6090000 0.93180
1.6140000 0.93180
1.6190000 0.93681
1.6240000 0.93882
1.6290000 0.93882
1.6340000 0.93882
1.6390000 0.93882
1.6440000 0.93882
1.6490000 0.93882
1.6540000 0.93882
1.6590000 0.93079
1.6640000 0.93982
1.6690000 0.93882
1.6740000 0.93882
1.6790000 0.93882
1.6840000 0.93882
1.6890000 0.93982
1.6940000 0.93982
1.6990000 0.93982
1.7040000 0.93982
1.7090000 0.93982
1.7140000 0.93982
1.7190000 0.93982
1.7240000 0.93982
1.7290000 0.93982
1.7340000 0.93982
1.7390000 0.93882
1.7440000 0.94885
1.7490000 0.93982
1.7540000 0.93982
1.7590000 0.93982
1.7640000 0.93982
1.7690000 0.93982
1.7740000 0.93982
1.7790000 0.93982
1.7840000 0.93982
1.7890000 0.93982
1.7940000 0.93982
1.7990000 0.93982
1.8040000 0.93982
1.8090000 0.93982
1.8140000 0.94483
1.8190000 0.94784
1.8240000 0.93882
1.8290000 0.93982
1.8340000 0.94082
1.8390000 0.93280
1.8440000 0.93982
1.8490000 0.94784
1.8540000 0.94283
1.8590000 0.93280
1.8640000 0.93882
1.8690000 0.93982
1.8740000 0.94684
1.8790000 0.94784
1.8840000 0.94784
1.8890000 0.95486
1.8940000 0.94985
1.8990000 0.94784
1.9040000 0.94784
1.9090000 0.94885
1.9140000 0.95587
1.9190000 0.94684
1.9240000 0.94784
1.9290000 0.94985
1.9340000 0.95587
1.9390000 0.95486
1.9440000 0.95486
1.9490000 0.95486
1.9540000 0.95486
1.9590000 0.95587
1.9640000 0.95587
1.9690000 0.95587
1.9740000 0.95687
1.9790000 0.96289
1.9840000 0.96289
1.9890000 0.96289
1.9940000 0.96289
1.9990000 0.96289
2.0040000 0.96289
2.0090000 0.96189
2.0140000 0.97192
2.0190000 0.96289
2.0240000 0.96289
2.0290000 0.96289
2.0340000 0.96690
2.0390000 0.97091
2.0440000 0.96991
2.0490000 0.96389
2.0540000 0.96289
2.0590000 0.97091
2.0640000 0.97091
2.0690000 0.97091
2.0740000 0.97091
2.0790000 0.97292
2.0840000 0.97693
2.0890000 0.97793
2.0940000 0.97793
2.0990000 0.97793
2.1040000 0.97192
2.1090000 0.97091
2.1140000 0.97091
2.1190000 0.97693
2.1240000 0.97793
2.1290000 0.97793
2.1340000 0.97793
2.1390000 0.97793
2.1440000 0.97793
2.1490000 0.97793
2.1540000 0.98596
2.1590000 0.98596
2.1640000 0.98596
2.1690000 0.98596
2.1740000 0.98596
2.1790000 0.98596
2.1840000 0.98596
2.1890000 0.98596
2.1940000 0.98596
2.1990000 0.98596
2.2040000 0.98596
2.2090000 0.98596
2.2140000 0.98596
2.2190000 0.98596
2.2240000 0.98596
2.2290000 0.98596
2.2340000 0.98596
2.2390000 0.99398
2.2440000 0.98796
2.2490000 0.99398
2.2540000 0.99398
2.2590000 0.99298
2.2640000 0.98696
2.2690000 0.98997
2.2740000 0.99398
2.2790000 0.99398
2.2840000 0.99398
2.2890000 0.99398
2.2940000 0.99398
2.2990000 0.99398
2.3040000 0.99398
2.3090000 0.99398
2.3140000 0.99398
2.3190000 0.98696
2.3240000 0.99498
2.3290000 0.99398
2.3340000 0.99398
2.3390000 0.99398
2.3440000 0.99398
2.3490000 0.99398
2.3540000 0.99398
2.3590000 0.99398
2.3640000 1.00100
2.3690000 0.99398
2.3740000 0.99398
2.3790000 1.00201
2.3840000 1.00100
2.3890000 1.00201
2.3940000 1.00201
2.3990000 1.00502
