Asteroid designations ( Number, Name, Temporary designation): 492, Gismonda,  1902JR, 1902JR, 1913 RB, J13R00B
Observation was done on (UT) (format YYYY-MM-DD-hh): 2012 - 12 - 18 - 01:00
Observation was made by : Fornasier Sonia E-mail; sonia.fornasier@obspm.fr
At observatory with UAI code: 950
Obsv. comments: uploaded by Simon Anghel
The spectrum was published in the article: http://adsabs.harvard.edu/abs/2016Icar..269....1F
The normalization of this spectrum was made for the wavelength: 0.550 microns.
Original name of the file was: 492 Gismonda
Wavelength[um]	Reflectance	sigma(optional)
0.4400000 0.94135
0.4450000 0.96322
0.4500000 0.96322
0.4550000 0.97316
0.4600000 0.97813
0.4650000 0.97813
0.4700000 0.97217
0.4750000 0.97416
0.4800000 0.97813
0.4850000 0.99801
0.4900000 0.97913
0.4950000 0.98509
0.5000000 0.99105
0.5050000 0.99205
0.5100000 0.98509
0.5150000 0.98608
0.5200000 0.96421
0.5250000 0.99205
0.5300000 1.00000
0.5350000 1.00000
0.5400000 0.99503
0.5450000 1.00000
0.5500000 1.00000
0.5550000 0.99105
0.5600000 0.99205
0.5650000 0.99801
0.5700000 0.99801
0.5750000 0.99602
0.5800000 0.99503
0.5850000 1.00596
0.5900000 0.98907
0.5950000 0.99702
0.6000000 0.99602
0.6050000 0.99503
0.6100000 0.99503
0.6150000 0.98907
0.6200000 0.98608
0.6250000 0.99105
0.6300000 0.98111
0.6350000 0.97614
0.6400000 0.98509
0.6450000 0.98111
0.6500000 0.98509
0.6550000 1.00795
0.6600000 0.99702
0.6650000 0.99105
0.6700000 0.98907
0.6750000 0.99404
0.6800000 0.98410
0.6850000 0.98509
0.6900000 0.98310
0.6950000 0.98410
0.7000000 0.98310
0.7050000 0.97813
0.7100000 0.98111
0.7150000 0.97515
0.7200000 0.97515
0.7250000 0.98111
0.7300000 0.98211
0.7350000 0.97614
0.7400000 0.96720
0.7450000 0.96918
0.7500000 0.97117
0.7550000 0.96918
0.7600000 0.96322
0.7650000 0.95626
0.7700000 0.97018
0.7750000 0.97316
0.7800000 0.97416
0.7850000 0.96720
0.7900000 0.96819
0.7950000 0.97117
0.8000000 0.96819
0.8050000 0.96322
0.8100000 0.96720
0.8150000 0.96322
0.8200000 0.96024
0.8250000 0.94036
0.8300000 0.96024
0.8350000 0.95924
0.8400000 0.95328
0.8450000 0.96024
0.8500000 0.94732
0.8550000 0.93738
0.8600000 0.95626
0.8650000 0.96024
0.8700000 0.96620
0.8750000 0.94036
0.8800000 0.96421
0.8850000 0.95129
0.8900000 0.94334
0.8950000 0.94235
0.9000000 0.95924
0.9050000 0.95427
0.9100000 0.95229
0.9150000 0.96024
0.9200000 0.95527
0.9250000 0.93738
0.9300000 0.94533
0.9350000 0.93340
0.9400000 0.93936
0.9450000 0.95129
0.9500000 0.93439
0.9550000 0.94135
0.9600000 0.92346
0.9650000 0.93837
0.9700000 0.93340
0.9750000 0.93439
0.9800000 0.93936
0.9850000 0.95527
0.9900000 0.95328
0.9950000 0.94831
1.0000000 0.94135
1.0050000 0.94334
1.0100000 0.94533
1.0150000 0.94235
1.0200000 0.95229
1.0250000 0.94135
1.0300000 0.94632
1.0350000 0.95229
1.0400000 0.93638
1.0450000 0.93638
1.0500000 0.94533
1.0550000 0.94235
1.0600000 0.93141
1.0650000 0.94135
1.0700000 0.93141
1.0750000 0.93439
1.0800000 0.93141
1.0850000 0.92942
1.0900000 0.93439
1.0950000 0.94433
1.1000000 0.94930
1.1050000 0.94930
1.1100000 0.93936
1.1150000 0.93439
1.1200000 0.94533
1.1250000 0.93837
1.1300000 0.95328
1.1350000 0.95626
1.1400000 0.93539
1.1450000 0.93042
1.1500000 0.93837
1.1550000 0.95129
1.1600000 0.93837
1.1650000 0.93340
1.1700000 0.93837
1.1750000 0.95427
1.1800000 0.95626
1.1850000 0.95229
1.1900000 0.94135
1.1950000 0.94930
1.2000000 0.94831
1.2050000 0.95626
1.2100000 0.96024
1.2150000 0.96322
1.2200000 0.96322
1.2250000 0.96322
1.2300000 0.96918
1.2350000 0.97813
1.2400000 0.97813
1.2450000 0.96819
1.2500000 0.96322
1.2550000 0.96620
1.2600000 0.96620
1.2650000 0.95626
1.2700000 0.96223
1.2750000 0.97217
1.2800000 0.97813
1.2850000 0.97614
1.2900000 0.96620
1.2950000 0.97316
1.3000000 0.98907
1.3050000 0.99702
1.3100000 1.00000
1.3150000 0.99404
1.3200000 0.99205
1.3250000 0.99006
1.3300000 0.98012
1.3350000 0.97018
1.3400000 0.96620
1.3450000 0.96421
1.3500000 0.97117
1.3550000 0.97018
1.3600000 0.97018
1.3650000 0.97018
1.3700000 0.97018
1.3750000 0.97018
1.3800000 0.96918
1.3850000 0.97813
1.3900000 0.98708
1.3950000 0.99702
1.4000000 0.98708
1.4050000 0.96421
1.4100000 0.96223
1.4150000 0.95924
1.4200000 0.96819
1.4250000 0.97018
1.4300000 0.97018
1.4350000 0.96819
1.4400000 0.96123
1.4450000 0.95626
1.4500000 0.94930
1.4550000 0.96024
1.4600000 0.98410
1.4650000 0.97117
1.4700000 0.95626
1.4750000 0.95626
1.4800000 0.95626
1.4850000 0.96918
1.4900000 0.97913
1.4950000 0.96421
1.5000000 0.95129
1.5050000 0.96123
1.5100000 0.97018
1.5150000 0.97913
1.5200000 0.98509
1.5250000 0.98211
1.5300000 0.97714
1.5350000 0.97813
1.5400000 0.98012
1.5450000 0.99304
1.5500000 1.00696
1.5550000 1.00696
1.5600000 1.00398
1.5650000 1.00000
1.5700000 0.99105
1.5750000 0.99105
1.5800000 0.98509
1.5850000 0.98509
1.5900000 0.98608
1.5950000 0.99304
1.6000000 0.99503
1.6050000 1.00000
1.6100000 0.99702
1.6150000 0.99105
1.6200000 0.98807
1.6250000 1.01193
1.6300000 1.01988
1.6350000 1.00199
1.6400000 0.99006
1.6450000 1.01093
1.6500000 1.02187
1.6550000 1.01292
1.6600000 1.00398
1.6650000 0.99205
1.6700000 0.98211
1.6750000 1.00099
1.6800000 1.01889
1.6850000 1.01392
1.6900000 1.00795
1.6950000 1.00199
1.7000000 0.99602
1.7050000 1.00795
1.7100000 1.01988
1.7150000 1.01789
1.7200000 1.01392
1.7250000 1.01392
1.7300000 1.01392
1.7350000 1.02286
1.7400000 1.02187
1.7450000 1.02883
1.7500000 1.02883
1.7550000 1.02485
1.7600000 1.01690
1.7650000 1.01392
1.7700000 1.01392
1.7750000 1.01491
1.7800000 1.02584
1.7850000 1.02883
1.7900000 1.02584
1.7950000 1.02485
1.8000000 1.04274
1.8050000 1.05368
1.8100000 1.04076
1.8150000 1.03479
1.8200000 1.04771
1.8250000 1.05467
1.8300000 1.04374
1.8350000 1.03280
1.8400000 1.04473
1.8450000 1.05567
1.8500000 1.04771
1.8550000 1.03678
1.8600000 1.03479
1.8650000 1.03579
1.8700000 1.03579
1.8750000 1.03579
1.8800000 1.03579
1.8850000 1.03579
1.8900000 1.04274
1.8950000 1.04274
1.9000000 1.04374
1.9050000 1.04274
1.9100000 1.03976
1.9150000 1.03479
1.9200000 1.02883
1.9250000 1.02087
1.9300000 1.02187
1.9350000 1.02783
1.9400000 1.03280
1.9450000 1.04274
1.9500000 1.04274
1.9550000 1.05169
1.9600000 1.04374
1.9650000 1.04175
1.9700000 1.04374
1.9750000 1.05169
1.9800000 1.05567
1.9850000 1.04374
1.9900000 1.03579
1.9950000 1.03579
2.0000000 1.03579
2.0050000 1.04573
2.0100000 1.05070
2.0150000 1.03777
2.0200000 1.03380
2.0250000 1.03976
2.0300000 1.03678
2.0350000 1.02087
2.0400000 1.00994
2.0450000 1.02187
2.0500000 1.02883
2.0550000 1.02982
2.0600000 1.02386
2.0650000 1.02883
2.0700000 1.03280
2.0750000 1.05070
2.0800000 1.05070
2.0850000 1.04274
2.0900000 1.03579
2.0950000 1.03976
2.1000000 1.04274
2.1050000 1.03579
2.1100000 1.03380
2.1150000 1.02187
2.1200000 1.01392
2.1250000 1.02684
2.1300000 1.02783
