Asteroid designations ( Number, Name, Temporary designation): 7088, Ishtar, 1992_AA
Observation was done on (UT) (format YYYY-MM-DD-hh): 2005 - 10 - 31 - 00:00
Observation was made by : Simone Ieva E-mail; simone.ieva@obspm.fr
At observatory with UAI code: 262
Obsv. comments: Ieva et al. (2013) in preparation
The spectrum was published in the article: http://www.oa-roma.inaf.it/planet/NEOSURFACE.html
The normalization of this spectrum was made for the wavelength: 0.550 microns.
Original name of the file was: 7088.txt
Wavelength[um]	Reflectance	sigma(optional)
0.4204 0.76601
0.4212 0.76776
0.4219 0.78035
0.4226 0.78035
0.4234 0.71892
0.4241 0.73708
0.4248 0.82840
0.4256 0.78035
0.4263 0.77596
0.4270 0.70872
0.4278 0.71633
0.4285 0.86925
0.4292 0.78035
0.4300 0.79269
0.4307 0.77596
0.4315 0.74512
0.4322 0.84175
0.4329 0.80503
0.4337 0.77386
0.4344 0.82309
0.4351 0.78969
0.4359 0.71552
0.4366 0.76099
0.4373 0.74898
0.4381 0.79540
0.4388 0.86187
0.4395 0.75857
0.4403 0.77085
0.4410 0.72499
0.4418 0.72574
0.4425 0.80314
0.4432 0.76948
0.4440 0.79549
0.4447 0.74881
0.4454 0.79975
0.4462 0.75568
0.4469 0.75577
0.4476 0.72169
0.4484 0.72290
0.4491 0.74641
0.4498 0.79660
0.4506 0.82379
0.4513 0.79832
0.4521 0.81082
0.4528 0.81898
0.4535 0.89421
0.4543 0.80968
0.4550 0.83478
0.4557 0.72754
0.4565 0.77411
0.4572 0.80860
0.4579 0.79101
0.4587 0.84252
0.4594 0.86086
0.4601 0.85789
0.4609 0.83308
0.4616 0.82670
0.4624 0.85201
0.4631 0.85840
0.4638 0.87589
0.4646 0.84962
0.4653 0.85084
0.4660 0.86145
0.4668 0.87546
0.4675 0.80333
0.4682 0.84072
0.4690 0.86913
0.4697 0.85754
0.4704 0.82039
0.4712 0.81012
0.4719 0.84071
0.4727 0.83675
0.4734 0.88204
0.4741 0.83511
0.4749 0.93962
0.4756 0.86019
0.4763 0.87529
0.4771 0.83952
0.4778 0.85131
0.4785 0.86404
0.4793 0.87332
0.4800 0.84217
0.4807 0.84556
0.4815 0.85644
0.4822 0.87172
0.4830 0.86275
0.4837 0.84830
0.4844 0.87760
0.4852 0.84168
0.4859 0.86340
0.4866 0.88217
0.4874 0.84516
0.4881 0.88589
0.4888 0.82936
0.4896 0.84677
0.4903 0.86823
0.4910 0.86095
0.4918 0.92234
0.4925 0.88350
0.4933 0.92699
0.4940 0.94549
0.4947 0.94549
0.4955 0.96108
0.4962 0.96108
0.4969 0.96108
0.4977 0.88108
0.4984 1.03642
0.4991 0.96108
0.4999 0.96108
0.5006 0.96108
0.5013 0.96108
0.5021 0.96108
0.5028 0.90526
0.5036 0.87480
0.5043 0.90900
0.5050 0.85407
0.5058 0.90706
0.5065 0.93958
0.5072 0.94105
0.5080 0.92126
0.5087 0.92928
0.5094 0.92662
0.5102 0.90446
0.5109 0.88079
0.5116 0.90771
0.5124 0.88305
0.5131 0.90537
0.5139 0.89289
0.5146 0.95475
0.5153 0.94360
0.5161 0.90922
0.5168 0.91594
0.5175 0.91385
0.5183 0.89198
0.5190 0.91546
0.5197 0.92990
0.5205 0.90191
0.5212 0.93729
0.5219 0.95687
0.5227 0.94592
0.5234 0.93161
0.5242 0.92629
0.5249 0.93021
0.5256 0.93235
0.5264 0.91875
0.5271 0.92202
0.5278 0.93676
0.5286 0.94953
0.5293 0.94323
0.5300 0.96375
0.5308 0.93781
0.5315 0.92153
0.5322 0.94318
0.5330 0.96045
0.5337 0.96733
0.5345 0.90700
0.5352 0.95339
0.5359 0.94620
0.5367 0.89686
0.5374 0.93731
0.5381 0.99095
0.5389 0.96678
0.5396 0.96810
0.5403 0.99877
0.5411 0.99814
0.5418 0.96091
0.5425 0.94516
0.5433 0.97775
0.5440 0.96664
0.5448 0.99171
0.5455 0.97482
0.5462 0.96899
0.5470 0.97498
0.5477 0.98525
0.5484 1.02605
0.5492 1.02113
0.5499 1.00000
0.5506 0.97189
0.5514 0.98973
0.5521 0.99562
0.5528 0.98417
0.5536 0.98744
0.5543 1.00902
0.5551 1.00090
0.5558 0.97441
0.5565 0.96688
0.5573 0.99387
0.5580 1.00106
0.5587 1.00149
0.5595 0.98220
0.5602 0.99036
0.5609 1.01507
0.5617 1.02730
0.5624 1.01513
0.5631 0.99290
0.5639 1.00948
0.5646 1.00812
0.5654 1.00123
0.5661 1.01276
0.5668 0.99007
0.5676 1.02942
0.5683 1.00502
0.5690 1.03757
0.5698 1.04671
0.5705 1.00947
0.5712 1.00720
0.5720 1.01762
0.5727 1.01037
0.5734 1.02814
0.5742 1.02575
0.5749 0.98927
0.5756 0.98819
0.5764 1.06136
0.5771 1.04594
0.5779 0.99477
0.5786 0.99270
0.5793 1.02643
0.5801 1.05415
0.5808 1.05006
0.5815 1.02278
0.5823 1.02415
0.5830 1.04385
0.5837 1.02537
0.5845 1.03540
0.5852 1.01226
0.5859 1.03651
0.5867 1.06065
0.5874 1.05362
0.5882 1.02334
0.5889 1.02016
0.5896 1.03883
0.5904 1.01100
0.5911 1.03026
0.5918 1.04273
0.5926 1.04725
0.5933 1.05577
0.5940 1.04545
0.5948 1.05513
0.5955 1.05978
0.5962 1.04092
0.5970 1.05736
0.5977 1.03273
0.5985 1.02092
0.5992 1.03525
0.5999 1.05017
0.6007 1.04587
0.6014 1.05428
0.6021 1.06803
0.6029 1.06496
0.6036 1.02907
0.6043 1.03042
0.6051 1.03961
0.6058 1.03677
0.6065 1.05046
0.6073 1.04415
0.6080 1.01939
0.6088 1.02053
0.6095 1.05643
0.6102 1.08651
0.6110 1.08034
0.6117 1.04994
0.6124 1.05116
0.6132 1.04588
0.6139 1.03096
0.6146 1.02424
0.6154 1.05721
0.6161 1.07921
0.6168 1.07021
0.6176 1.06212
0.6183 1.05129
0.6191 1.05750
0.6198 1.06876
0.6205 1.06524
0.6213 1.06333
0.6220 1.06374
0.6227 1.07341
0.6235 1.07085
0.6242 1.05990
0.6249 1.06604
0.6257 1.06851
0.6264 1.06128
0.6271 1.05706
0.6279 1.06077
0.6286 1.04123
0.6294 1.05079
0.6301 1.06530
0.6308 1.07369
0.6316 1.06729
0.6323 1.07254
0.6330 1.08643
0.6338 1.06525
0.6345 1.05803
0.6352 1.06221
0.6360 1.04191
0.6367 1.05637
0.6374 1.08145
0.6382 1.07414
0.6389 1.07834
0.6397 1.08315
0.6404 1.07642
0.6411 1.06042
0.6419 1.07535
0.6426 1.10984
0.6433 1.10171
0.6441 1.08836
0.6448 1.06143
0.6455 1.06019
0.6463 1.08974
0.6470 1.09803
0.6477 1.08143
0.6485 1.07554
0.6492 1.09057
0.6500 1.09768
0.6507 1.10097
0.6514 1.07250
0.6522 1.07841
0.6529 1.09375
0.6536 1.09888
0.6544 1.11119
0.6551 1.10218
0.6558 1.09166
0.6566 1.10040
0.6573 1.10590
0.6580 1.08239
0.6588 1.08185
0.6595 1.07439
0.6603 1.06657
0.6610 1.08637
0.6617 1.09636
0.6625 1.10197
0.6632 1.08425
0.6639 1.07247
0.6647 1.09159
0.6654 1.10777
0.6661 1.09077
0.6669 1.08431
0.6676 1.09310
0.6683 1.08883
0.6691 1.08934
0.6698 1.09766
0.6706 1.12125
0.6713 1.11865
0.6720 1.11283
0.6728 1.10384
0.6735 1.09744
0.6742 1.07798
0.6750 1.07250
0.6757 1.06631
0.6764 1.08986
0.6772 1.15142
0.6779 1.15610
0.6786 1.13310
0.6794 1.10738
0.6801 1.11551
0.6809 1.12407
0.6816 1.12534
0.6823 1.11585
0.6831 1.10432
0.6838 1.12487
0.6845 1.09523
0.6853 1.10363
0.6860 1.11282
0.6867 1.11872
0.6875 1.13739
0.6882 1.13378
0.6889 1.08870
0.6897 1.10591
0.6904 1.11490
0.6912 1.10334
0.6919 1.12101
0.6926 1.14867
0.6934 1.12307
0.6941 1.10516
0.6948 1.12336
0.6956 1.11136
0.6963 1.11619
0.6970 1.13650
0.6978 1.11517
0.6985 1.11282
0.6992 1.13021
0.7000 1.12571
0.7007 1.13854
0.7015 1.14326
0.7022 1.14109
0.7029 1.16058
0.7037 1.10133
0.7044 1.12966
0.7051 1.12262
0.7059 1.12929
0.7066 1.10432
0.7073 1.14109
0.7081 1.11525
0.7088 1.21005
0.7095 1.14451
0.7103 1.18011
0.7110 1.16093
0.7118 1.18094
0.7125 1.16837
0.7132 1.14249
0.7140 1.12013
0.7147 1.14994
0.7154 1.15504
0.7162 1.13501
0.7169 1.15533
0.7176 1.12326
0.7184 1.13361
0.7191 1.14197
0.7198 1.13671
0.7206 1.14019
0.7213 1.10068
0.7221 1.15496
0.7228 1.14528
0.7235 1.13664
0.7243 1.15581
0.7250 1.13330
0.7257 1.14114
0.7265 1.13201
0.7272 1.14140
0.7279 1.14167
0.7287 1.13714
0.7294 1.14026
0.7301 1.15256
0.7309 1.12184
0.7316 1.12655
0.7324 1.13721
0.7331 1.11752
0.7338 1.12401
0.7346 1.13816
0.7353 1.15385
0.7360 1.13721
0.7368 1.13281
0.7375 1.10528
0.7382 1.11357
0.7390 1.11743
0.7397 1.14167
0.7404 1.14013
0.7412 1.16807
0.7419 1.18834
0.7427 1.13760
0.7434 1.13281
0.7441 1.15734
0.7449 1.14009
0.7456 1.13539
0.7463 1.14538
0.7471 1.11620
0.7478 1.09099
0.7485 1.11524
0.7493 1.14147
0.7500 1.16324
0.7507 1.16658
0.7515 1.14671
0.7522 1.15250
0.7530 1.16246
0.7537 1.15855
0.7544 1.10562
0.7552 1.13662
0.7559 1.12416
0.7566 1.11918
0.7574 1.12410
0.7581 1.13178
0.7588 1.14613
0.7596 1.12485
0.7603 1.13608
0.7610 1.11259
0.7618 1.14537
0.7625 1.16421
0.7633 1.16379
0.7640 1.13052
0.7647 1.10626
0.7655 1.13289
0.7662 1.15220
0.7669 1.12102
0.7677 1.16928
0.7684 1.13293
0.7691 1.14822
0.7699 1.12943
0.7706 1.09600
0.7713 1.11863
0.7721 1.12486
0.7728 1.19315
0.7736 1.14098
0.7743 1.13061
0.7750 1.13789
0.7758 1.13436
0.7765 1.13800
0.7772 1.11542
0.7780 1.11376
0.7787 1.06429
0.7794 1.13789
0.7802 1.13789
0.7809 1.13789
0.7816 1.10311
0.7824 1.13800
0.7831 1.16391
0.7838 1.14157
0.7846 1.21589
0.7853 1.13796
0.7861 1.13796
0.7868 1.20656
0.7875 1.17841
0.7883 1.15620
0.7890 1.13796
0.7897 1.13778
0.7905 1.12380
0.7912 1.13273
0.7919 1.13439
0.7927 1.11349
0.7934 1.13739
0.7941 1.15158
0.7949 1.11857
0.7956 1.13228
0.7964 1.16827
0.7971 1.10720
0.7978 1.08103
0.7986 1.08545
0.7993 1.12328
0.8000 1.08800
0.8008 1.12385
0.8015 1.05001
0.8022 1.11937
0.8030 1.13619
0.8037 1.10401
0.8044 1.13273
0.8052 1.09388
0.8059 1.10176
0.8067 1.07616
0.8074 1.04473
0.8081 1.09651
0.8089 1.10716
0.8096 1.11002
0.8103 1.08740
0.8111 1.03493
0.8118 1.08734
0.8125 1.08559
0.8133 1.05073
0.8140 1.08943
0.8147 1.09500
0.8155 1.10009
0.8162 1.11147
0.8170 1.05542
0.8177 1.09454
0.8184 1.07486
0.8192 1.03754
0.8199 1.01848
0.8206 1.02895
0.8214 1.04915
0.8221 1.04129
0.8228 1.02982
0.8236 1.04652
0.8243 1.05384
0.8250 1.01921
0.8258 1.01399
0.8265 1.03685
0.8273 1.05169
0.8280 1.04993
0.8287 1.01316
0.8295 1.00120
0.8302 1.03364
0.8309 1.05387
0.8317 1.03288
0.8324 1.00617
0.8331 1.00492
0.8339 1.01049
0.8346 1.00953
0.8353 1.00396
0.8361 1.01793
0.8368 1.00849
0.8376 1.00488
0.8383 1.00514
0.8390 1.01907
0.8398 1.02461
0.8405 1.02902
0.8412 1.02839
0.8420 1.02688
0.8427 0.97282
0.8434 1.00726
0.8442 0.95694
0.8449 1.01039
0.8456 1.01318
0.8464 0.99891
0.8471 0.98408
0.8479 1.01059
0.8486 0.96910
0.8493 0.97692
0.8501 0.99146
0.8508 0.99733
0.8515 1.06451
0.8523 1.06177
0.8530 0.96312
0.8537 1.00411
0.8545 0.98254
0.8552 1.01631
0.8559 0.97544
0.8567 0.93253
0.8574 0.98564
0.8582 1.00353
0.8589 1.02440
0.8596 1.01702
0.8604 1.00455
0.8611 0.98605
0.8618 0.97810
0.8626 0.98001
0.8633 0.97703
0.8640 0.96898
0.8648 0.96434
0.8655 0.99029
0.8662 0.97519
0.8670 0.97014
0.8677 1.00047
0.8685 0.96942
0.8692 1.00639
0.8699 0.98746
0.8707 0.97824
0.8714 0.97904
0.8721 0.93209
0.8729 0.96292
0.8736 0.93534
0.8743 0.93096
0.8751 0.92120
0.8758 1.05395
0.8765 0.99045
0.8773 0.95391
0.8780 0.98921
0.8788 0.94930
0.8795 0.98101
0.8802 0.90678
0.8810 0.93906
0.8817 0.95595
0.8824 0.94367
0.8832 0.95267
0.8839 0.92857
0.8846 0.95371
0.8854 0.90831
0.8861 0.90404
0.8868 0.92429
0.8876 0.92192
0.8883 0.94847
0.8891 1.00021
0.8898 0.97585
0.8905 0.93845
0.8913 0.89889
0.8920 0.88263
0.8927 0.93200
0.8935 0.91255
0.8942 0.92853
0.8949 0.93987
0.8957 0.96704
0.8964 0.93632
0.8971 0.91831
0.8979 0.89461
0.8986 0.85559
0.8994 0.90547
0.9001 0.94834
0.9008 0.94126
0.9016 0.93316
0.9023 0.91845
0.9030 0.88311
0.9038 0.83003
0.9045 0.83126
0.9052 0.88121
0.9060 0.90309
0.9067 0.87608
0.9074 0.94618
0.9082 1.00580
0.9089 0.98388
0.9097 0.94325
0.9104 0.94423
0.9111 0.92649
0.9119 0.85405
0.9126 0.92486
0.9133 0.89464
0.9141 0.87743
0.9148 0.90628
0.9155 0.97072
0.9163 0.87443
0.9170 0.82122
0.9177 0.86599
0.9185 0.93114
0.9192 0.93545
0.9200 0.91961
0.9207 0.88620
0.9214 0.85080
0.9222 0.91702
0.9229 0.87413
0.9236 0.92642
0.9244 0.88825
0.9251 0.88587
0.9258 0.86265
0.9266 0.85749
0.9273 0.87847
0.9280 0.89193
0.9288 0.90762
0.9295 0.91874
0.9303 0.92829
0.9310 0.90889
0.9317 0.88247
0.9325 0.86877
0.9332 0.89521
0.9339 0.89552
0.9347 0.87805
0.9354 0.88355
0.9361 0.88955
0.9369 0.87859
0.9376 0.87366
0.9383 0.89277
0.9391 0.88164
0.9398 0.89517
0.9406 0.94207
0.9413 0.91043
0.9420 0.85654
0.9428 0.86893
0.9435 0.87866
0.9442 0.89289
0.9450 0.89627
0.9457 0.89728
0.9464 0.91505
0.9472 0.85846
0.9479 0.88535
0.9486 0.84928
0.9494 0.78064
0.9501 0.84629
0.9508 0.89679
0.9516 0.88925
0.9523 0.81105
0.9531 0.88957
0.9538 0.84928
0.9545 0.84928
0.9553 0.84928
0.9560 0.88925
0.9567 0.93282
0.9575 0.80323
0.9582 0.93592
0.9589 0.84037
0.9597 0.91357
0.9604 0.94179
0.9611 0.91817
0.9619 0.94774
0.9626 1.00115
0.9634 0.86192
0.9641 0.91360
0.9648 0.93767
0.9656 0.95586
0.9663 0.97452
0.9670 0.84881
0.9678 0.95637
0.9685 0.83006
0.9692 0.91360
0.9700 0.88549
0.9707 0.91950
0.9715 0.94761
0.9722 0.93954
0.9729 0.91253
0.9737 0.93756
0.9744 0.89306
0.9751 0.83261
0.9759 0.82139
0.9766 0.84545
0.9773 0.93131
0.9781 0.91076
0.9788 0.88024
0.9795 0.94846
0.9803 0.92419
0.9810 0.93258
0.9817 0.97905
0.9825 0.94934
0.9832 0.92211
0.9840 0.92567
0.9847 0.89028
0.9854 0.87653
0.9862 0.92024
0.9869 0.97568
0.9876 0.92211
0.9884 0.97718
0.9891 0.91480
0.9898 0.91480
0.9906 0.83729
0.9913 0.89623
0.9920 0.89377
0.9928 0.95204
0.9935 0.83321
0.9943 0.93346
0.9950 0.86534
0.9957 0.90111
0.9965 0.92729
0.9972 0.92475
0.9979 0.93136
0.9987 0.94211
0.9994 0.89034
1.0001 0.85137
