Asteroid designations ( Number, Name, Temporary designation): 383, Janina,  1894AU, 1894AU, 1925 QC, J25Q00C, 1936 QQ1, J36Q01Q, 1936 RO, J36R00O
Observation was done on (UT) (format YYYY-MM-DD-hh): 2012 - 02 - 19 - 06:15
Observation was made by : Fornasier Sonia E-mail; sonia.fornasier@obspm.fr
At observatory with UAI code: 950
Obsv. comments: uploaded by Simon Anghel
The spectrum was published in the article: http://adsabs.harvard.edu/abs/2016Icar..269....1F
The normalization of this spectrum was made for the wavelength: 1.250 microns.
Original name of the file was: 383 Janina
Wavelength[um]	Reflectance	sigma(optional)
0.5600000 0.91956
0.5650000 0.90585
0.5700000 0.91225
0.5750000 0.91590
0.5800000 0.91133
0.5850000 0.91225
0.5900000 0.91956
0.5950000 0.92322
0.6000000 0.93327
0.6050000 0.92962
0.6100000 0.93510
0.6150000 0.94333
0.6200000 0.93876
0.6250000 0.93967
0.6300000 0.94698
0.6350000 0.95247
0.6400000 0.94333
0.6450000 0.94790
0.6500000 0.95795
0.6550000 0.94607
0.6600000 0.95978
0.6650000 0.95064
0.6700000 0.95887
0.6750000 0.96252
0.6800000 0.96069
0.6850000 0.96161
0.6900000 0.95612
0.6950000 0.95978
0.7000000 0.96618
0.7050000 0.96709
0.7100000 0.96069
0.7150000 0.97075
0.7200000 0.97258
0.7250000 0.97441
0.7300000 0.98080
0.7350000 0.96344
0.7400000 0.97075
0.7450000 0.97349
0.7500000 0.97715
0.7550000 0.97532
0.7600000 0.95521
0.7650000 0.92596
0.7700000 0.97441
0.7750000 0.97349
0.7800000 0.98995
0.7850000 0.97623
0.7900000 0.97258
0.7950000 0.97898
0.8000000 0.97806
0.8050000 0.97075
0.8100000 0.97898
0.8150000 0.97989
0.8200000 0.97898
0.8250000 0.97898
0.8300000 0.99360
0.8350000 0.99177
0.8400000 0.97258
0.8450000 0.95521
0.8500000 0.97898
0.8550000 0.97715
0.8600000 0.97258
0.8650000 0.96984
0.8700000 0.97989
0.8750000 0.98172
0.8800000 0.99269
0.8850000 0.97166
0.8900000 0.97349
0.8950000 0.98629
0.9000000 0.95521
0.9050000 0.97898
0.9100000 0.98355
0.9150000 0.98720
0.9200000 0.98629
0.9250000 0.97989
0.9300000 0.98080
0.9350000 0.97623
0.9400000 0.96069
0.9450000 0.96984
0.9500000 0.96344
0.9550000 0.98080
0.9600000 0.98537
0.9650000 0.97715
0.9700000 0.98080
0.9750000 0.97989
0.9800000 0.97989
0.9850000 0.98080
0.9900000 0.97349
0.9950000 0.97258
1.0000000 0.97989
1.0050000 0.97349
1.0100000 0.97898
1.0150000 0.97989
1.0200000 0.97715
1.0250000 0.97349
1.0300000 0.97349
1.0350000 0.97349
1.0400000 0.97349
1.0450000 0.97349
1.0500000 0.97349
1.0550000 0.97349
1.0600000 0.97349
1.0650000 0.97532
1.0700000 0.97349
1.0750000 0.97349
1.0800000 0.96984
1.0850000 0.97349
1.0900000 0.97989
1.0950000 0.97989
1.1000000 0.97989
1.1050000 0.98080
1.1100000 0.97258
1.1150000 0.97258
1.1200000 0.97989
1.1250000 0.98720
1.1300000 0.98720
1.1350000 0.98172
1.1400000 0.97989
1.1450000 0.98172
1.1500000 0.98720
1.1550000 0.98995
1.1600000 0.98537
1.1650000 0.99360
1.1700000 0.99360
1.1750000 0.99360
1.1800000 0.99360
1.1850000 0.99360
1.1900000 0.99269
1.1950000 0.98720
1.2000000 0.98720
1.2050000 0.98720
1.2100000 0.98720
1.2150000 0.98812
1.2200000 0.99360
1.2250000 0.98720
1.2300000 0.98720
1.2350000 0.98720
1.2400000 0.99269
1.2450000 0.99360
1.2500000 1.00000
1.2550000 0.99726
1.2600000 0.98995
1.2650000 0.98629
1.2700000 0.98720
1.2750000 0.98720
1.2800000 0.98720
1.2850000 0.98720
1.2900000 0.98629
1.2950000 0.99360
1.3000000 0.99726
1.3050000 0.99360
1.3100000 0.99269
1.3150000 1.00000
1.3200000 1.00000
1.3250000 1.00091
1.3300000 0.99726
1.3350000 0.99452
1.3400000 1.00091
1.3450000 1.00731
1.3500000 1.00914
1.3550000 1.00274
1.3600000 0.99177
1.3650000 0.98537
1.3700000 0.98629
1.3750000 0.99086
1.3800000 0.99726
1.3850000 1.00000
1.3900000 0.99817
1.3950000 1.00366
1.4000000 1.00091
1.4050000 1.00000
1.4100000 1.00000
1.4150000 0.99726
1.4200000 1.00457
1.4250000 1.00091
1.4300000 0.99909
1.4350000 0.99360
1.4400000 0.99909
1.4450000 0.99909
1.4500000 1.00731
1.4550000 1.00640
1.4600000 1.00731
1.4650000 1.00731
1.4700000 1.00183
1.4750000 1.00091
1.4800000 1.00640
1.4850000 1.00091
1.4900000 0.99360
1.4950000 1.00000
1.5000000 0.99360
1.5050000 0.98720
1.5100000 0.99086
1.5150000 0.99726
1.5200000 1.00091
1.5250000 0.99634
1.5300000 1.00000
1.5350000 1.00000
1.5400000 1.00091
1.5450000 1.00731
1.5500000 1.00731
1.5550000 1.00731
1.5600000 1.00731
1.5650000 1.00731
1.5700000 1.00000
1.5750000 0.99086
1.5800000 1.00091
1.5850000 1.00731
1.5900000 1.00091
1.5950000 1.00457
1.6000000 1.01280
1.6050000 1.01097
1.6100000 1.00000
1.6150000 0.99726
1.6200000 1.00548
1.6250000 1.01371
1.6300000 1.01463
1.6350000 1.00731
1.6400000 1.01371
1.6450000 1.00823
1.6500000 1.00640
1.6550000 1.00000
1.6600000 1.00000
1.6650000 1.00000
1.6700000 1.00640
1.6750000 1.00914
1.6800000 1.01371
1.6850000 1.01371
1.6900000 1.01005
1.6950000 1.01371
1.7000000 1.01371
1.7050000 1.01280
1.7100000 1.00548
1.7150000 1.01920
1.7200000 1.02011
1.7250000 1.01463
1.7300000 1.01371
1.7350000 1.02011
1.7400000 1.02011
1.7450000 1.02011
1.7500000 1.02011
1.7550000 1.02468
1.7600000 1.01371
1.7650000 1.01188
1.7700000 1.00183
1.7750000 1.00640
1.7800000 1.01005
1.7850000 1.01371
1.7900000 1.01371
1.7950000 1.01645
1.8000000 1.02011
1.8050000 1.01920
1.8100000 0.99634
1.8150000 0.99360
1.8200000 0.99726
1.8250000 1.00457
1.8300000 1.02559
1.8350000 1.02377
1.8400000 1.02011
1.8450000 1.01920
1.8500000 1.00091
1.8550000 1.02011
1.8600000 1.03108
1.8650000 1.01463
1.8700000 0.99817
1.8750000 0.98812
1.8800000 1.01280
1.8850000 1.02559
1.8900000 1.02651
1.8950000 1.01371
1.9000000 1.02651
1.9050000 1.01188
1.9100000 1.04205
1.9150000 1.04753
1.9200000 1.04022
1.9250000 1.03748
1.9300000 1.04113
1.9350000 1.03291
1.9400000 1.02468
1.9450000 1.01920
1.9500000 1.01371
1.9550000 1.00457
1.9600000 1.00091
1.9650000 1.00640
1.9700000 1.01737
1.9750000 1.02011
1.9800000 1.02102
1.9850000 1.01280
1.9900000 1.01371
1.9950000 1.01371
2.0000000 1.01828
2.0050000 1.01463
2.0100000 1.01463
2.0150000 1.00640
2.0200000 1.00914
2.0250000 1.02011
2.0300000 1.02377
2.0350000 1.03016
2.0400000 1.02194
2.0450000 1.01097
2.0500000 1.00640
2.0550000 1.01463
2.0600000 1.01463
2.0650000 1.01371
2.0700000 1.01371
2.0750000 1.01920
2.0800000 1.02742
2.0850000 1.02742
2.0900000 1.02742
2.0950000 1.02742
2.1000000 1.03382
2.1050000 1.02834
2.1100000 1.02742
2.1150000 1.03382
2.1200000 1.03199
2.1250000 1.02742
2.1300000 1.02742
2.1350000 1.01920
2.1400000 1.02285
2.1450000 1.03291
2.1500000 1.02651
2.1550000 1.02377
2.1600000 1.03291
2.1650000 1.03016
2.1700000 1.03748
2.1750000 1.02651
2.1800000 1.02651
2.1850000 1.03656
2.1900000 1.02925
2.1950000 1.02742
2.2000000 1.02742
2.2050000 1.02742
2.2100000 1.02742
2.2150000 1.02742
2.2200000 1.02742
2.2250000 1.02742
2.2300000 1.02742
2.2350000 1.02102
2.2400000 1.02011
2.2450000 1.02742
2.2500000 1.03016
2.2550000 1.02651
2.2600000 1.02742
2.2650000 1.02377
2.2700000 1.04296
2.2750000 1.03473
2.2800000 1.03931
2.2850000 1.03748
2.2900000 1.04113
2.2950000 1.04113
2.3000000 1.03382
2.3050000 1.02468
2.3100000 1.02011
2.3150000 1.03291
2.3200000 1.02194
2.3250000 1.03565
2.3300000 1.04022
2.3350000 1.04113
2.3400000 1.04022
2.3450000 1.04479
2.3500000 1.02377
2.3550000 1.01737
2.3600000 1.02834
2.3650000 1.03473
2.3700000 1.04388
2.3750000 1.03931
2.3800000 1.04388
2.3850000 1.03473
2.3900000 1.02742
2.3950000 1.03382
2.4000000 1.04113
