Asteroid designations ( Number, Name, Temporary designation): 526, Jena,  1904NQ, 1904NQ, 1901 TF, J01T00F
Observation was done on (UT) (format YYYY-MM-DD-hh): 2012 - 12 - 18 - 23:53
Observation was made by : Fornasier Sonia E-mail; sonia.fornasier@obspm.fr
At observatory with UAI code: 950
Obsv. comments: uploaded by Simon Anghel
The spectrum was published in the article: http://adsabs.harvard.edu/abs/2016Icar..269....1F
The normalization of this spectrum was made for the wavelength: 0.550 microns.
Original name of the file was: 526 Jena
Wavelength[um]	Reflectance	sigma(optional)
0.4500000 0.97602
0.4550000 0.98402
0.4600000 0.98402
0.4650000 0.98102
0.4700000 0.98202
0.4750000 0.98801
0.4800000 1.00000
0.4850000 0.99301
0.4900000 0.98002
0.4950000 0.98701
0.5000000 0.99301
0.5050000 0.99101
0.5100000 0.98402
0.5150000 0.97103
0.5200000 0.98801
0.5250000 0.99900
0.5300000 1.00500
0.5350000 1.00100
0.5400000 0.99900
0.5450000 1.00200
0.5500000 1.00000
0.5550000 1.00100
0.5600000 0.99401
0.5650000 1.00500
0.5700000 1.00200
0.5750000 1.00599
0.5800000 1.00400
0.5850000 1.00599
0.5900000 0.99600
0.5950000 1.00899
0.6000000 1.00599
0.6050000 0.99800
0.6100000 0.99500
0.6150000 0.99800
0.6200000 0.99800
0.6250000 0.99800
0.6300000 0.99700
0.6350000 0.99301
0.6400000 0.99900
0.6450000 1.00500
0.6500000 0.99800
0.6550000 1.00599
0.6600000 1.00200
0.6650000 1.00200
0.6700000 1.00599
0.6750000 0.99800
0.6800000 0.99800
0.6850000 0.99900
0.6900000 0.99401
0.6950000 0.99500
0.7000000 0.99301
0.7050000 0.99101
0.7100000 0.99201
0.7150000 0.98901
0.7200000 0.99500
0.7250000 0.98901
0.7300000 0.98801
0.7350000 0.98801
0.7400000 0.98901
0.7450000 0.99101
0.7500000 0.98801
0.7550000 0.99101
0.7600000 0.98002
0.7650000 0.98601
0.7700000 0.98202
0.7750000 0.98002
0.7800000 0.98202
0.7850000 0.98402
0.7900000 0.98102
0.7950000 0.98501
0.8000000 0.98002
0.8050000 0.98002
0.8100000 0.97902
0.8150000 0.98501
0.8200000 0.97902
0.8250000 0.97702
0.8300000 0.98102
0.8350000 0.96903
0.8400000 0.96204
0.8450000 0.97303
0.8500000 0.97103
0.8550000 0.97702
0.8600000 0.95904
0.8650000 0.95305
0.8700000 0.97802
0.8750000 0.96304
0.8800000 0.96404
0.8850000 0.97702
0.8900000 0.95604
0.8950000 0.96204
0.9000000 0.95305
0.9050000 0.97403
0.9100000 0.95205
0.9150000 0.96104
0.9200000 0.93506
0.9250000 0.93606
0.9300000 0.92807
0.9350000 0.94406
0.9400000 0.93706
0.9450000 0.92208
0.9500000 0.93606
0.9550000 0.93806
0.9600000 0.93606
0.9650000 0.93606
0.9700000 0.92907
0.9750000 0.91908
0.9800000 0.92208
0.9850000 0.91608
0.9900000 0.92208
0.9950000 0.93007
1.0000000 0.93407
1.0050000 0.91908
1.0100000 0.91508
1.0150000 0.90609
1.0200000 0.90509
1.0250000 0.90709
1.0300000 0.89910
1.0350000 0.91708
1.0400000 0.93007
1.0450000 0.90310
1.0500000 0.91808
1.0550000 0.90909
1.0600000 0.89411
1.0650000 0.89510
1.0700000 0.89910
1.0750000 0.90110
1.0800000 0.91209
1.0850000 0.90410
1.0900000 0.91109
1.0950000 0.91309
1.1000000 0.90210
1.1050000 0.90809
1.1100000 0.89510
1.1150000 0.88711
1.1200000 0.87812
1.1250000 0.89111
1.1300000 0.89211
1.1350000 0.89311
1.1400000 0.88611
1.1450000 0.88412
1.1500000 0.89311
1.1550000 0.89311
1.1600000 0.89211
1.1650000 0.89211
1.1700000 0.89211
1.1750000 0.89211
1.1800000 0.89211
1.1850000 0.89211
1.1900000 0.88811
1.1950000 0.87313
1.2000000 0.89011
1.2050000 0.90010
1.2100000 0.90410
1.2150000 0.91209
1.2200000 0.91109
1.2250000 0.90310
1.2300000 0.89111
1.2350000 0.89211
1.2400000 0.91409
1.2450000 0.90310
1.2500000 0.89211
1.2550000 0.89311
1.2600000 0.89211
1.2650000 0.89111
1.2700000 0.87912
1.2750000 0.86913
1.2800000 0.87812
1.2850000 0.87712
1.2900000 0.87812
1.2950000 0.86713
1.3000000 0.86314
1.3050000 0.87113
1.3100000 0.87413
1.3150000 0.87812
1.3200000 0.87812
1.3250000 0.87313
1.3300000 0.87013
1.3350000 0.86913
1.3400000 0.86314
1.3450000 0.86813
1.3500000 0.87013
1.3550000 0.87013
1.3600000 0.87013
1.3650000 0.87013
1.3700000 0.87013
1.3750000 0.87113
1.3800000 0.86314
1.3850000 0.86314
1.3900000 0.86513
1.3950000 0.87013
1.4000000 0.88212
1.4050000 0.88412
1.4100000 0.87812
1.4150000 0.87612
1.4200000 0.88911
1.4250000 0.88212
1.4300000 0.86414
1.4350000 0.87013
1.4400000 0.88212
1.4450000 0.88511
1.4500000 0.88511
1.4550000 0.88511
1.4600000 0.88511
1.4650000 0.88511
1.4700000 0.88412
1.4750000 0.88412
1.4800000 0.88511
1.4850000 0.88012
1.4900000 0.87712
1.4950000 0.88412
1.5000000 0.88012
1.5050000 0.86813
1.5100000 0.86513
1.5150000 0.87812
1.5200000 0.88511
1.5250000 0.87712
1.5300000 0.88412
1.5350000 0.89011
1.5400000 0.89111
1.5450000 0.87912
1.5500000 0.87812
1.5550000 0.87812
1.5600000 0.87313
1.5650000 0.86114
1.5700000 0.86314
1.5750000 0.86713
1.5800000 0.87013
1.5850000 0.86414
1.5900000 0.86813
1.5950000 0.87812
1.6000000 0.88511
1.6050000 0.88511
1.6100000 0.88911
1.6150000 0.89211
1.6200000 0.90010
1.6250000 0.89910
1.6300000 0.90010
1.6350000 0.89111
1.6400000 0.89011
1.6450000 0.90310
1.6500000 0.90310
1.6550000 0.88911
1.6600000 0.87712
1.6650000 0.87812
1.6700000 0.87812
1.6750000 0.87812
1.6800000 0.87712
1.6850000 0.87712
1.6900000 0.87612
1.6950000 0.87612
1.7000000 0.87812
1.7050000 0.87113
1.7100000 0.86314
1.7150000 0.86414
1.7200000 0.87013
1.7250000 0.87612
1.9350000 0.87812
1.9400000 0.87113
1.9450000 0.85914
1.9500000 0.85814
1.9550000 0.86813
1.9600000 0.87313
1.9650000 0.87612
1.9700000 0.87712
1.9750000 0.87812
1.9800000 0.87612
1.9850000 0.87313
1.9900000 0.86713
1.9950000 0.86014
2.0000000 0.84815
2.0050000 0.84316
2.0100000 0.84316
2.0150000 0.85514
2.0200000 0.85514
2.0250000 0.85514
2.0300000 0.84915
2.0350000 0.83716
2.0400000 0.83417
2.0450000 0.84016
2.0500000 0.84216
2.0550000 0.84815
2.0600000 0.84815
2.0650000 0.84815
2.0700000 0.84815
2.0750000 0.84515
2.0800000 0.84116
2.0850000 0.84116
2.0900000 0.84216
2.0950000 0.84815
2.1000000 0.84815
2.1050000 0.84815
2.1100000 0.84116
2.1150000 0.83716
2.1200000 0.83417
2.1250000 0.83417
2.1300000 0.83317
2.1350000 0.83417
2.1400000 0.83916
2.1450000 0.84216
2.1500000 0.83816
2.1550000 0.82318
2.1600000 0.81918
2.1650000 0.81918
2.1700000 0.82118
2.1750000 0.83417
2.1800000 0.83317
2.1850000 0.84216
2.1900000 0.84116
2.1950000 0.84216
2.2000000 0.82717
2.2050000 0.81219
2.2100000 0.81219
2.2150000 0.81419
2.2200000 0.82517
2.2250000 0.82617
2.2300000 0.81918
2.2350000 0.80719
2.2400000 0.79520
2.2450000 0.79720
2.2500000 0.80020
2.2550000 0.81019
2.2600000 0.81119
2.2650000 0.80919
2.2700000 0.79720
