Asteroid designations ( Number, Name, Temporary designation): 9147, Kourakuen, 1977_DD1
Observation was done on (UT) (format YYYY-MM-DD-hh): 2011 - 11 - 15 - 09:00
Observation was made by : Mirel Birlan E-mail; mirel.birlan@imcce.fr
At observatory with UAI code: 568
Obsv. comments: Will be  published in http://www.scientificbulletin.upb.ro/
The spectrum was published in the article: In press
The normalization of this spectrum was made for the wavelength: 1.250 microns.
Original name of the file was: a9147_1017_sHD4940_1033.FIN
Wavelength[um]	Reflectance	sigma(optional)
0.8200 0.62188
0.8250 0.61351
0.8300 0.59697
0.8350 0.58126
0.8400 0.56111
0.8450 0.55359
0.8500 0.54066
0.8550 0.53045
0.8600 0.52494
0.8650 0.51461
0.8700 0.50022
0.8750 0.49869
0.8800 0.49221
0.8850 0.48409
0.8900 0.48099
0.8950 0.46474
0.9000 0.46327
0.9050 0.46499
0.9100 0.46602
0.9150 0.45289
0.9200 0.45309
0.9250 0.47025
0.9300 0.45856
0.9350 0.46087
0.9400 0.47354
0.9450 0.47793
0.9500 0.47290
0.9550 0.48616
0.9600 0.49101
0.9650 0.50123
0.9700 0.51079
0.9750 0.51983
0.9800 0.53325
0.9850 0.54925
0.9900 0.54947
0.9950 0.56622
1.0000 0.58750
1.0050 0.59197
1.0100 0.61559
1.0150 0.63081
1.0200 0.64305
1.0250 0.66318
1.0300 0.66876
1.0350 0.68184
1.0400 0.71826
1.0450 0.73423
1.0500 0.74541
1.0550 0.75514
1.0600 0.77257
1.0650 0.78677
1.0700 0.80504
1.0750 0.80970
1.0800 0.82463
1.0850 0.83040
1.0900 0.84789
1.0950 0.85109
1.1000 0.85786
1.1050 0.88332
1.1100 0.87953
1.1150 0.89448
1.1200 0.89134
1.1250 0.89575
1.1300 0.90841
1.1350 0.90684
1.1400 0.91014
1.1450 0.90691
1.1500 0.92139
1.1550 0.91718
1.1600 0.92731
1.1650 0.94028
1.1700 0.93102
1.1750 0.94906
1.1800 0.95888
1.1850 0.95160
1.1900 0.94746
1.1950 0.94675
1.2000 0.95340
1.2050 0.95659
1.2100 0.96001
1.2150 0.96644
1.2200 0.96902
1.2250 0.97518
1.2300 0.98874
1.2350 0.99099
1.2400 0.98541
1.2450 0.98828
1.2500 1.00000
1.2550 0.99078
1.2600 0.99564
1.2650 0.99793
1.2700 0.98132
1.2750 0.98174
1.2800 0.98699
1.2850 1.01681
1.2900 1.01802
1.2950 1.02131
1.3000 1.02425
1.3050 1.01067
1.3100 1.01733
1.3150 1.03029
1.3200 1.04782
1.3250 1.03204
1.3300 1.03946
1.3350 1.03511
1.3750 1.00391
1.3800 1.01745
1.3900 1.00387
1.4150 0.99987
1.4200 1.00055
1.4250 1.01452
1.4300 1.01163
1.4350 1.00005
1.4400 1.00467
1.4450 1.00439
1.4500 0.97828
1.4550 0.97578
1.4600 0.97711
1.4650 0.98382
1.4700 0.97176
1.4750 0.97001
1.4800 0.97040
1.4850 0.93495
1.4900 0.93047
1.4950 0.93349
1.5000 0.93608
1.5050 0.91984
1.5100 0.91129
1.5150 0.91956
1.5200 0.91278
1.5250 0.89517
1.5300 0.88879
1.5350 0.89095
1.5400 0.89587
1.5450 0.89199
1.5500 0.86552
1.5550 0.86076
1.5600 0.84032
1.5650 0.85214
1.5750 0.84004
1.5800 0.84792
1.5850 0.82003
1.5900 0.80287
1.5950 0.81650
1.6000 0.80557
1.6050 0.77310
1.6100 0.77511
1.6150 0.76874
1.6200 0.76247
1.6250 0.76262
1.6300 0.76104
1.6350 0.76511
1.6400 0.75703
1.6450 0.75042
1.6500 0.73965
1.6550 0.73111
1.6600 0.73534
1.6650 0.72192
1.6700 0.70314
1.6750 0.70626
1.6800 0.72597
1.6850 0.69923
1.6900 0.68777
1.6950 0.68395
1.7000 0.66676
1.7050 0.67589
1.7100 0.66817
1.7150 0.67672
1.7200 0.66643
1.7250 0.65454
1.7300 0.64283
1.7350 0.62887
1.7400 0.63535
1.7450 0.65271
1.7500 0.64037
1.7550 0.63384
1.7600 0.61277
1.7650 0.61430
1.7700 0.63296
1.7750 0.62668
1.7800 0.61552
1.7850 0.62349
1.7900 0.62048
1.7950 0.61935
1.8000 0.58934
1.8050 0.58385
1.8100 0.59651
1.8150 0.58773
1.8200 0.57671
1.8250 0.59639
1.8300 0.58147
1.8350 0.57375
1.8400 0.57930
1.8450 0.56690
1.8500 0.56045
1.8550 0.55540
1.8600 0.54835
1.8650 0.58467
1.8700 0.58311
1.8750 0.54306
1.8800 0.55394
1.8850 0.58419
1.8900 0.56305
1.8950 0.55815
1.9000 0.56028
1.9050 0.56787
1.9100 0.55202
1.9150 0.53228
1.9200 0.53629
1.9250 0.53874
1.9300 0.55109
1.9350 0.57747
1.9400 0.57342
1.9450 0.57591
1.9500 0.56484
1.9550 0.54540
1.9600 0.54220
1.9650 0.53983
1.9700 0.53929
1.9750 0.54640
1.9800 0.55112
1.9850 0.55839
1.9900 0.54816
1.9950 0.53804
2.0100 0.54581
2.0150 0.53193
2.0250 0.58126
2.0300 0.57903
2.0350 0.54427
2.0400 0.55576
2.0450 0.56909
2.0500 0.58575
2.0550 0.57916
2.0600 0.57715
2.0650 0.59420
2.0700 0.58712
2.0750 0.57519
2.0800 0.58111
2.0850 0.59792
2.0900 0.60563
2.0950 0.60975
2.1000 0.62485
2.1050 0.62263
2.1100 0.61149
2.1150 0.62842
2.1200 0.62477
2.1250 0.63713
2.1300 0.65162
2.1350 0.63893
2.1400 0.64442
2.1450 0.65294
2.1500 0.62989
2.1550 0.63870
2.1600 0.63602
2.1650 0.66070
2.1700 0.66846
2.1750 0.66175
2.1800 0.67635
2.1850 0.68956
2.1900 0.65706
2.1950 0.67152
2.2000 0.68527
2.2050 0.69504
2.2100 0.72357
2.2150 0.70413
2.2200 0.69633
2.2250 0.69990
2.2300 0.71564
2.2350 0.71348
2.2400 0.71851
2.2450 0.72535
2.2500 0.73371
2.2550 0.74437
2.2600 0.73704
2.2650 0.73189
2.2700 0.73793
2.2750 0.75091
2.2800 0.78502
2.2850 0.77835
2.2900 0.77386
2.2950 0.78493
2.3000 0.79233
2.3050 0.78824
2.3100 0.80340
2.3150 0.81116
2.3200 0.82300
2.3350 0.81411
2.3400 0.82558
2.3450 0.81114
2.3500 0.80967
2.3550 0.84937
2.3650 0.85730
2.3700 0.83800
2.3750 0.83936
2.3900 0.84147
2.3950 0.88040
2.4050 0.87836
2.4100 0.89157
2.4200 0.88121
2.4400 0.92207
2.4450 0.90120
2.4500 0.90249
2.4800 0.96993
2.4850 1.02296
