Asteroid designations ( Number, Name, Temporary designation): 954, Li,  1921JU, 1921JU, 1905 UN, J05U00N, 1920 GC, J20G00C, 1943 PE, J43P00E, 1952 BE2, J52B02E
Observation was done on (UT) (format YYYY-MM-DD-hh): 2012 - 02 - 19 - 21:35
Observation was made by : Fornasier Sonia E-mail; sonia.fornasier@obspm.fr
At observatory with UAI code: 950
Obsv. comments: uploaded by Simon Anghel
The spectrum was published in the article: http://adsabs.harvard.edu/abs/2016Icar..269....1F
The normalization of this spectrum was made for the wavelength: 0.550 microns.
Original name of the file was: 954_Li.csv
Wavelength[um]	Reflectance	sigma(optional)
0.4950000 1.00998
0.5000000 0.99401
0.5050000 1.00299
0.5100000 1.00699
0.5150000 0.98603
0.5200000 1.01497
0.5250000 1.00200
0.5300000 1.00599
0.5350000 1.00299
0.5400000 1.00499
0.5450000 0.99401
0.5500000 1.00000
0.5550000 0.99301
0.5600000 0.99900
0.5650000 1.00299
0.5700000 1.00200
0.5750000 0.99202
0.5800000 1.00998
0.5850000 0.98802
0.5900000 0.99900
0.5950000 0.99800
0.6000000 0.99701
0.6050000 0.99102
0.6100000 0.99601
0.6150000 1.00299
0.6200000 1.00200
0.6250000 0.99401
0.6300000 0.99601
0.6350000 1.00399
0.6400000 1.00299
0.6450000 1.00998
0.6500000 1.00100
0.6550000 0.99501
0.6600000 1.00200
0.6650000 1.00499
0.6700000 1.00699
0.6750000 1.00399
0.6800000 1.00299
0.6850000 0.99501
0.6900000 1.01098
0.6950000 1.01796
0.7000000 1.01098
0.7050000 1.01098
0.7100000 1.00699
0.7150000 1.00798
0.7200000 1.01996
0.7250000 1.01397
0.7300000 1.02595
0.7350000 1.00998
0.7400000 1.01098
0.7450000 1.01896
0.7500000 1.00998
0.7550000 1.01397
0.7600000 1.03194
0.7650000 1.04291
0.7700000 1.01996
0.7750000 1.02994
0.7800000 1.02196
0.7850000 1.02295
0.7900000 1.01996
0.7950000 1.02595
0.8000000 1.02295
0.8050000 1.01796
0.8100000 1.02096
0.8150000 0.99900
0.8200000 1.01597
0.8250000 1.02994
0.8300000 1.02495
0.8350000 1.03693
0.8400000 1.01996
0.8450000 1.00998
0.8500000 1.02295
0.8550000 0.98503
0.8600000 1.03493
0.8650000 1.01796
0.8700000 1.02894
0.8750000 1.02495
0.8800000 1.03293
0.8850000 1.02495
0.8900000 1.04790
0.8950000 1.02395
0.9000000 1.02495
0.9050000 1.02794
0.9100000 1.02395
0.9150000 1.03792
0.9200000 1.02295
0.9250000 1.03094
0.9300000 1.02794
0.9350000 1.01996
0.9400000 1.04691
0.9450000 1.04291
0.9500000 1.02994
0.9550000 1.00000
0.9600000 1.02994
0.9650000 1.05190
0.9700000 1.05389
0.9750000 1.05788
0.9800000 1.06886
0.9850000 1.06487
0.9900000 1.04391
0.9950000 1.04192
1.0000000 1.06786
1.0050000 1.05289
1.0100000 1.04790
1.0150000 1.08084
1.0200000 1.10579
1.0250000 1.09381
1.0300000 1.07186
1.0350000 1.03992
1.0400000 1.05489
1.0450000 1.08283
1.0500000 1.09182
1.0550000 1.09681
1.0600000 1.11377
1.0650000 1.12076
1.0700000 1.10778
1.0750000 1.07285
1.0800000 1.05389
1.0850000 1.05689
1.0900000 1.07585
1.0950000 1.08683
1.1000000 1.09880
1.1050000 1.09780
1.1100000 1.09281
1.1150000 1.08383
1.1200000 1.08782
1.1250000 1.08283
1.1300000 1.06387
1.1350000 1.04691
1.1400000 1.07186
1.1450000 1.11477
1.1500000 1.13972
1.1550000 1.14172
1.1600000 1.11677
1.1650000 1.10379
1.1700000 1.09780
1.1750000 1.10878
1.1800000 1.11377
1.1850000 1.11377
1.1900000 1.10479
1.1950000 1.10579
1.2000000 1.11776
1.2050000 1.13174
1.2100000 1.12076
1.2150000 1.12874
1.2200000 1.14271
1.2250000 1.13573
1.2300000 1.13373
1.2350000 1.13473
1.2400000 1.12176
1.2450000 1.12275
1.2500000 1.13473
1.2550000 1.15669
1.2600000 1.17365
1.2650000 1.17864
1.2700000 1.17764
1.2750000 1.17166
1.2800000 1.17066
1.2850000 1.16168
1.2900000 1.14970
1.2950000 1.12774
1.3000000 1.10080
1.3050000 1.11277
1.3100000 1.12375
1.3150000 1.14371
1.3200000 1.14271
1.3250000 1.13273
1.3300000 1.15070
1.3350000 1.16866
1.3400000 1.21058
1.3450000 1.23653
1.3500000 1.23852
1.3550000 1.21956
1.3600000 1.19661
1.3650000 1.16667
1.3700000 1.14172
1.3750000 1.12974
1.3800000 1.11577
1.3850000 1.11277
1.3900000 1.11876
1.3950000 1.13872
1.4000000 1.16267
1.4050000 1.18663
1.4100000 1.21058
1.4150000 1.22255
1.4200000 1.22056
1.4250000 1.20858
1.4300000 1.19361
1.4350000 1.18762
1.4400000 1.19960
1.4450000 1.21956
1.4500000 1.23952
1.4550000 1.23054
1.4600000 1.20060
1.4650000 1.20160
1.4700000 1.21557
1.4750000 1.22455
1.4800000 1.24451
1.4850000 1.25250
1.4900000 1.25250
1.4950000 1.25449
1.5000000 1.25549
1.5050000 1.25250
1.5100000 1.24551
1.5150000 1.24551
1.5200000 1.24850
1.5250000 1.28343
1.5300000 1.31737
1.5350000 1.31238
1.5400000 1.30339
1.5450000 1.27246
1.5500000 1.25449
1.5550000 1.25250
1.5600000 1.25250
1.5650000 1.25948
1.5700000 1.26148
1.5750000 1.27246
1.5800000 1.27844
1.5850000 1.28942
1.5900000 1.29042
1.5950000 1.28543
1.6000000 1.28144
1.6050000 1.28144
1.6100000 1.28144
1.6150000 1.28144
1.6200000 1.28144
1.6250000 1.27944
1.6300000 1.28144
1.6350000 1.29541
1.6400000 1.31138
1.6450000 1.30639
1.6500000 1.30240
1.6550000 1.34232
1.6600000 1.39022
1.6650000 1.35828
1.6700000 1.30240
1.6750000 1.31038
1.6800000 1.33034
1.6850000 1.33333
1.6900000 1.33234
1.6950000 1.32934
1.7000000 1.33134
1.7050000 1.34331
1.7100000 1.34731
1.7150000 1.34032
1.7200000 1.30838
1.7250000 1.30240
1.7300000 1.31437
1.7350000 1.32036
1.7400000 1.31836
1.7450000 1.32934
1.7500000 1.35329
1.7550000 1.37126
1.7600000 1.37026
1.7650000 1.37026
1.7700000 1.36028
1.7750000 1.35429
1.7800000 1.34431
1.7850000 1.33932
1.7900000 1.33234
1.7950000 1.33733
1.8000000 1.34930
1.8050000 1.36128
1.8100000 1.36826
1.8150000 1.36327
1.8200000 1.34531
1.8250000 1.31737
1.8300000 1.30639
1.8350000 1.30240
1.8400000 1.31238
1.8450000 1.31836
1.8500000 1.31537
1.8550000 1.30240
1.8600000 1.29641
1.8650000 1.29341
1.8700000 1.31138
1.8750000 1.33733
1.8800000 1.35928
1.8850000 1.36028
1.8900000 1.33832
1.8950000 1.31238
1.9000000 1.30938
1.9050000 1.32535
1.9100000 1.32934
1.9150000 1.31238
1.9200000 1.31437
1.9250000 1.33932
1.9300000 1.36028
1.9350000 1.36228
1.9400000 1.37425
1.9450000 1.40519
1.9500000 1.42415
1.9550000 1.38723
1.9600000 1.35529
1.9650000 1.36228
1.9700000 1.37325
1.9750000 1.41717
1.9800000 1.45509
1.9850000 1.47605
1.9900000 1.49601
1.9950000 1.49601
2.0000000 1.48503
2.0050000 1.46507
2.0100000 1.44711
2.0150000 1.43214
2.0200000 1.41417
2.0250000 1.41417
2.0300000 1.41417
2.0350000 1.41317
2.0400000 1.40719
2.0450000 1.39122
2.0500000 1.37126
2.0550000 1.36327
2.0600000 1.36228
2.0650000 1.37525
2.0700000 1.39321
2.0750000 1.41118
2.0800000 1.43513
2.0850000 1.45110
2.0900000 1.47405
2.0950000 1.48004
2.1000000 1.46607
2.1050000 1.44611
2.1100000 1.42615
2.1150000 1.41517
2.1200000 1.40419
2.1250000 1.42216
2.1300000 1.44611
2.1350000 1.47006
2.1400000 1.49401
2.1450000 1.51198
2.1500000 1.52196
2.1550000 1.49601
2.1600000 1.47804
2.1650000 1.48004
2.1700000 1.48004
2.1750000 1.48004
2.1800000 1.47605
2.1850000 1.45509
2.1900000 1.44112
2.1950000 1.44212
2.2000000 1.44910
2.2050000 1.45010
2.2100000 1.44012
2.2150000 1.44411
2.2200000 1.48503
2.2250000 1.54092
2.2300000 1.55190
2.2350000 1.53892
2.2400000 1.50798
2.2450000 1.47305
2.2500000 1.45309
2.2550000 1.44511
2.2600000 1.53792
2.2650000 1.61976
2.2700000 1.57984
2.2750000 1.53892
2.2800000 1.54291
2.2850000 1.54691
2.2900000 1.54291
2.2950000 1.53493
2.3000000 1.52295
2.3050000 1.51098
2.3100000 1.49002
2.3150000 1.51996
2.3200000 1.56886
2.3250000 1.60679
2.3300000 1.63074
2.3350000 1.59281
2.3400000 1.56088
2.3450000 1.60180
2.3500000 1.61976
2.3550000 1.56687
2.3600000 1.54990
2.3650000 1.59281
2.3700000 1.57086
2.3750000 1.50399
2.3800000 1.48703
2.3850000 1.48703
