Asteroid designations ( Number, Name, Temporary designation): 468, Lina,  1901FZ, 1901FZ, 1915 PA, J15P00A, 1918 EB, J18E00B
Observation was done on (UT) (format YYYY-MM-DD-hh): 2012 - 12 - 19 - 06:11
Observation was made by : Fornasier Sonia E-mail; sonia.fornasier@obspm.fr
At observatory with UAI code: 950
Obsv. comments: uploaded by Simon Anghel
The spectrum was published in the article: http://adsabs.harvard.edu/abs/2016Icar..269....1F
The normalization of this spectrum was made for the wavelength: 0.550 microns.
Original name of the file was: 468 Lina
Wavelength[um]	Reflectance	sigma(optional)
0.5200000 0.98980
0.5250000 1.01122
0.5300000 1.00408
0.5350000 1.02449
0.5400000 1.02143
0.5450000 1.00000
0.5500000 1.00000
0.5550000 1.00306
0.5600000 1.02755
0.5650000 0.99796
0.5700000 1.02551
0.5750000 1.00612
0.5800000 1.00714
0.5850000 1.00816
0.5900000 0.99694
0.5950000 1.02143
0.6000000 1.02959
0.6050000 1.00714
0.6100000 1.00510
0.6150000 0.99388
0.6200000 1.02041
0.6250000 0.98673
0.6300000 1.01122
0.6350000 1.00510
0.6400000 1.03061
0.6450000 1.00816
0.6500000 1.00408
0.6550000 0.98571
0.6600000 1.01327
0.6650000 1.00918
0.6700000 0.99184
0.6750000 1.00000
0.6800000 0.99592
0.6850000 1.00000
0.6900000 0.99388
0.6950000 1.00510
0.7000000 1.00102
0.7050000 1.00714
0.7100000 1.00000
0.7150000 0.99592
0.7200000 0.99796
0.7250000 1.00306
0.7300000 0.99184
0.7350000 0.98673
0.7400000 0.99694
0.7450000 0.99592
0.7500000 0.98265
0.7550000 1.00102
0.7600000 0.99490
0.7650000 1.02449
0.7700000 0.99898
0.7750000 0.97041
0.7800000 0.98980
0.7850000 0.97143
0.7900000 0.96327
0.7950000 0.97041
0.8000000 0.96531
0.8050000 1.00102
0.8100000 0.98469
0.8150000 0.97041
0.8200000 0.98469
0.8250000 0.98571
0.8300000 0.95204
0.8350000 0.96735
0.8400000 0.92449
0.8450000 0.92551
0.8500000 0.95408
0.8550000 0.92755
0.8600000 0.88673
0.8650000 0.94082
0.8700000 0.95204
0.8750000 0.93061
0.8800000 0.92449
0.8850000 0.90714
0.8900000 0.85612
0.8950000 0.83469
0.9000000 0.85918
0.9050000 0.90918
0.9100000 0.90816
0.9150000 0.94082
0.9200000 0.94286
0.9250000 0.97245
