Asteroid designations ( Number, Name, Temporary designation): 2264, Sabrina,  1979 YK, J79Y00K, 1932 JD, J32J00D, 1932 KB, J32K00B, 1933 SU, J33S00U, 1939 VJ, J39V00J, 1944 RJ, J44R00J, 1949 MW, J49M00W, 1966 QK, J66Q00K, 1966 RP, J66R00P, 1970 HM, J70H00M, 1972 TL7, J72T07L, 1975 ED2, J75E02D, 1976 GZ3, J76G03Z, 1976 JT1, J76J01T, 1977 FJ, J77F00J, 1977 RS1, J77R01S, 1978 WY4, J78W04Y
Observation was done on (UT) (format YYYY-MM-DD-hh): 2012 - 12 - 18 - 04:00
Observation was made by : Fornasier Sonia E-mail; sonia.fornasier@obspm.fr
At observatory with UAI code: 950
Obsv. comments: uploaded by Simon Anghel
The spectrum was published in the article: http://adsabs.harvard.edu/abs/2016Icar..269....1F
The normalization of this spectrum was made for the wavelength: 1.250 microns.
Original name of the file was: 2264_Sabrina
Wavelength[um]	Reflectance	sigma(optional)
0.5500000 1.02449
0.5550000 1.01531
0.5600000 1.02551
0.5650000 1.02449
0.5700000 1.01735
0.5750000 1.02143
0.5800000 1.01735
0.5850000 1.01633
0.5900000 1.02449
0.5950000 1.00816
0.6000000 1.02041
0.6050000 1.01735
0.6100000 1.01837
0.6150000 1.02347
0.6200000 1.01224
0.6250000 1.02041
0.6300000 1.01327
0.6350000 1.01939
0.6400000 1.00816
0.6450000 1.01327
0.6500000 1.01531
0.6550000 1.02551
0.6600000 1.01429
0.6650000 1.00714
0.6700000 1.01020
0.6750000 1.00306
0.6800000 1.01020
0.6850000 1.00612
0.6900000 0.99592
0.6950000 1.00204
0.7000000 1.01633
0.7050000 1.00612
0.7100000 1.00510
0.7150000 1.00204
0.7200000 0.99898
0.7250000 1.00612
0.7300000 1.00306
0.7350000 1.00306
0.7400000 1.00612
0.7450000 1.00102
0.7500000 1.00204
0.7550000 1.00102
0.7600000 0.94286
0.7650000 0.95714
0.7700000 0.99592
0.7750000 0.99694
0.7800000 0.99082
0.7850000 0.98673
0.7900000 0.99082
0.7950000 0.98776
0.8000000 0.99286
0.8050000 0.99490
0.8100000 0.98673
0.8150000 0.97347
0.8200000 0.97959
0.8250000 0.96735
0.8300000 0.98878
0.8350000 1.00204
0.8400000 0.97041
0.8450000 0.98878
0.8500000 0.95918
0.8550000 0.97041
0.8600000 0.96531
0.8650000 0.97653
0.8700000 0.95918
0.8750000 0.95714
0.8800000 0.96633
0.8850000 0.97755
0.8900000 0.95714
0.8950000 0.94184
0.9000000 0.95102
0.9050000 0.97857
0.9100000 0.97143
0.9150000 0.97245
0.9200000 0.97041
0.9250000 0.97449
0.9300000 0.95102
0.9350000 0.95408
0.9400000 0.95612
0.9450000 0.97755
0.9500000 1.00000
0.9550000 0.99490
0.9600000 0.98163
0.9650000 0.98367
0.9700000 1.00306
0.9750000 0.97959
0.9800000 0.96939
0.9850000 0.96224
0.9900000 0.97755
0.9950000 0.97245
1.0000000 0.98367
1.0050000 0.99388
1.0100000 0.97347
1.0150000 0.98061
1.0200000 0.97143
1.0250000 0.96633
1.0300000 0.95204
1.0350000 0.95714
1.0400000 0.95714
1.0450000 0.94694
1.0500000 0.95714
1.0550000 0.97347
1.0600000 0.96531
1.0650000 0.94286
1.0700000 0.93980
1.0750000 0.95000
1.0800000 0.96939
1.0850000 0.97041
1.0900000 0.96429
1.0950000 0.96327
1.1000000 0.96429
1.1050000 0.96224
1.1100000 0.95306
1.1150000 0.94082
1.1200000 0.94082
1.1250000 0.96429
1.1300000 0.95612
1.1350000 0.95204
1.1400000 0.97143
1.1450000 0.95714
1.1500000 0.96939
1.1550000 0.97347
1.1600000 0.97041
1.1650000 0.96020
1.1700000 0.96531
1.1750000 0.97245
1.1800000 0.97041
1.1850000 0.97959
1.1900000 0.98673
1.1950000 0.97857
1.2000000 0.98469
1.2050000 0.98367
1.2100000 0.97041
1.2150000 0.97245
1.2200000 0.98571
1.2250000 0.98673
1.2300000 0.98265
1.2350000 0.98367
1.2400000 1.00204
1.2450000 1.01020
1.2500000 1.00000
1.2550000 0.99184
1.2600000 0.98367
1.2650000 0.97551
1.2700000 0.98980
1.2750000 1.00918
1.2800000 0.99082
1.2850000 0.98980
1.2900000 1.01122
1.2950000 1.01020
1.3000000 1.00714
1.3050000 0.98571
1.3100000 0.97347
1.3150000 0.96327
1.3200000 0.97245
1.3250000 0.98469
1.3300000 0.99694
1.3350000 1.00204
1.3400000 0.98980
1.3450000 0.98163
1.3500000 0.98061
1.3550000 0.98265
1.3600000 0.98571
1.3650000 0.98673
1.3700000 0.98673
1.3750000 0.98673
1.3800000 0.98673
1.3850000 0.98673
1.3900000 0.98776
1.3950000 0.98776
1.4000000 0.98673
1.4050000 0.99286
1.4100000 1.00000
1.4150000 1.00204
1.4200000 0.98776
1.4250000 0.98061
1.4300000 0.99388
1.4350000 0.99898
1.4400000 1.00000
1.4450000 1.00510
1.4500000 1.01020
1.4550000 1.01020
1.4600000 1.00918
1.4650000 1.00918
1.4700000 1.00918
1.4750000 1.00816
1.4800000 1.00204
1.4850000 1.00204
1.4900000 1.00816
1.4950000 1.00918
1.5000000 1.00816
1.5050000 1.01020
1.5100000 1.01633
1.5150000 1.02857
1.5200000 1.04082
1.5250000 1.04388
1.5300000 1.04082
1.5350000 1.03776
1.5400000 1.03673
1.5450000 1.03776
1.5500000 1.03980
1.5550000 1.04388
1.5600000 1.05510
1.5650000 1.06122
1.5700000 1.06122
1.5750000 1.05306
1.5800000 1.04694
1.5850000 1.04694
1.5900000 1.04694
1.5950000 1.04694
1.6000000 1.04694
1.6050000 1.05102
1.6100000 1.05408
1.6150000 1.05510
1.6200000 1.05510
1.6250000 1.04388
1.6300000 1.03163
1.6350000 1.03163
1.6400000 1.03265
1.6450000 1.03980
1.6500000 1.04388
1.6550000 1.05306
1.6600000 1.05510
1.6650000 1.05510
1.6700000 1.05102
1.6750000 1.04184
1.6800000 1.03367
1.6850000 1.04694
1.6900000 1.06837
1.6950000 1.06020
1.7000000 1.05408
1.7050000 1.05204
1.7100000 1.05306
1.7150000 1.05714
1.7200000 1.06327
1.7250000 1.05408
1.7300000 1.04184
1.7350000 1.04082
1.7400000 1.04694
1.7450000 1.04694
1.7500000 1.04592
1.7550000 1.04694
1.7600000 1.04898
1.7650000 1.05510
1.7700000 1.06122
1.7750000 1.06122
1.7800000 1.05408
1.7850000 1.05918
1.7900000 1.07245
1.7950000 1.09694
1.8000000 1.11531
1.8050000 1.12653
1.8100000 1.12857
1.8150000 1.12347
1.8200000 1.11020
1.8250000 1.08980
1.8300000 1.06633
1.8350000 1.05510
1.8400000 1.04388
1.8450000 1.03776
1.8500000 1.03673
1.8550000 1.04082
1.8600000 1.04694
1.8650000 1.05408
1.8700000 1.05408
1.8750000 1.05510
1.8800000 1.04286
1.8850000 1.02959
1.8900000 1.01633
1.8950000 1.00714
1.9000000 1.00306
1.9050000 1.01020
1.9100000 1.03061
1.9150000 1.04694
1.9200000 1.05510
1.9250000 1.04490
1.9300000 1.03367
1.9350000 1.02449
1.9400000 1.01837
1.9450000 1.01735
1.9500000 1.02143
1.9550000 1.03163
1.9600000 1.05000
1.9650000 1.07347
1.9700000 1.08469
1.9750000 1.07959
1.9800000 1.07143
1.9850000 1.06939
1.9900000 1.06837
1.9950000 1.07755
2.0000000 1.08776
2.0050000 1.09184
2.0100000 1.09184
2.0150000 1.08980
2.0200000 1.08367
2.0250000 1.08571
2.0300000 1.08673
2.0350000 1.07653
2.0400000 1.06327
2.0450000 1.06224
2.0500000 1.05408
2.0550000 1.04286
2.0600000 1.03265
2.0650000 1.04592
2.0700000 1.05510
2.0750000 1.04592
2.0800000 1.03776
2.0850000 1.03980
2.0900000 1.03980
2.0950000 1.04286
2.1000000 1.04796
2.1050000 1.05408
2.1100000 1.05510
2.1150000 1.05000
2.1200000 1.04592
2.1250000 1.05612
2.1300000 1.05408
2.1350000 1.03571
2.1400000 1.02755
2.1450000 1.03878
2.1500000 1.04184
2.1550000 1.03061
2.1600000 1.02755
2.1650000 1.02653
2.1700000 1.01633
2.1750000 1.00408
2.1800000 0.99184
2.1850000 0.98061
2.1900000 0.97347
2.1950000 0.97143
2.2000000 0.97551
