Asteroid designations ( Number, Name, Temporary designation): 24, Themis,  1947 BA, J47B00A, 1955 OH, J55O00H
Observation was done on (UT) (format YYYY-MM-DD-hh): 2012 - 12 - 18 - 23:00
Observation was made by : Fornasier Sonia E-mail; sonia.fornasier@obspm.fr
At observatory with UAI code: 950
Obsv. comments: uploaded by Simon Anghel
The spectrum was published in the article: http://adsabs.harvard.edu/abs/2016Icar..269....1F
The normalization of this spectrum was made for the wavelength: 0.550 microns.
Original name of the file was: 24 Themis
Wavelength[um]	Reflectance	sigma(optional)
0.4500000 1.00396
0.4550000 1.00099
0.4600000 1.00396
0.4650000 1.00692
0.4700000 1.00593
0.4750000 1.00000
0.4800000 1.00000
0.4850000 0.99505
0.4900000 1.00396
0.4950000 1.00593
0.5000000 1.01187
0.5050000 1.00396
0.5100000 0.99901
0.5150000 1.00890
0.5200000 1.00791
0.5250000 1.00593
0.5300000 1.00000
0.5350000 1.00198
0.5400000 1.00099
0.5450000 1.00000
0.5500000 1.00000
0.5550000 0.99308
0.5600000 1.00297
0.5650000 0.99802
0.5700000 0.99604
0.5750000 0.99209
0.5800000 0.99308
0.5850000 0.99308
0.5900000 0.99209
0.5950000 0.98912
0.6000000 0.99308
0.6050000 0.99209
0.6100000 0.99604
0.6150000 0.99407
0.6200000 0.99505
0.6250000 0.98912
0.6300000 0.98912
0.6350000 0.99209
0.6400000 0.98912
0.6450000 0.98912
0.6500000 0.99011
0.6550000 0.99703
0.6600000 0.99407
0.6650000 0.98912
0.6700000 0.99209
0.6750000 0.98912
0.6800000 0.98912
0.6850000 0.99110
0.6900000 0.98912
0.6950000 0.99209
0.7000000 0.99308
0.7050000 0.98912
0.7100000 0.99110
0.7150000 0.99308
0.7200000 0.98912
0.7250000 0.98813
0.7300000 0.99308
0.7350000 0.98912
0.7400000 0.99505
0.7450000 0.99604
0.7500000 0.98813
0.7550000 0.99110
0.7600000 0.99308
0.7650000 0.98813
0.7700000 0.99308
0.7750000 0.99308
0.7800000 0.98813
0.7850000 0.99604
0.7900000 0.99308
0.7950000 0.98813
0.8000000 0.99308
0.8050000 0.98714
0.8100000 0.98813
0.8150000 0.99110
0.8200000 0.99308
0.8250000 0.99505
0.8300000 0.99604
0.8350000 0.99604
0.8400000 0.99505
0.8450000 0.99407
0.8500000 0.99308
0.8550000 0.99110
0.8600000 0.98912
0.8650000 0.98615
0.8700000 0.98417
0.8750000 0.98121
0.8800000 0.97824
0.8850000 0.97428
0.8900000 0.97132
0.8950000 0.96835
0.9000000 0.96538
0.9050000 0.96241
0.9100000 0.95945
0.9150000 0.95747
0.9200000 0.95450
0.9250000 0.95351
0.9300000 0.95153
0.9350000 0.95054
0.9400000 0.95054
0.9450000 0.95054
0.9500000 0.95153
0.9550000 0.95351
0.9600000 0.95549
0.9650000 0.95846
0.9700000 0.96241
0.9750000 0.96736
0.9800000 0.97428
0.9850000 0.98121
0.9900000 0.98912
0.9950000 0.99110
1.0000000 0.98318
1.0050000 0.97824
1.0100000 0.97824
1.0150000 0.98318
1.0200000 0.99505
1.0250000 0.99407
1.0300000 0.98714
1.0350000 0.98912
1.0400000 0.98813
1.0450000 0.99308
1.0500000 0.98714
1.0550000 0.98318
1.0600000 0.98318
1.0650000 0.98615
1.0700000 0.98813
1.0750000 0.98912
1.0800000 0.98912
1.0850000 0.98912
1.0900000 0.98912
1.0950000 0.98912
1.1000000 0.98912
1.1050000 0.98912
1.1100000 0.98912
1.1150000 0.98912
1.1200000 0.98912
1.1250000 0.98912
1.1300000 0.98912
1.1350000 0.98912
1.1400000 0.99209
1.1450000 1.00297
1.1500000 0.99604
1.1550000 0.99604
1.1600000 0.99604
1.1650000 1.00396
1.1700000 1.00396
1.1750000 1.00198
1.1800000 0.99901
1.1850000 1.00791
1.1900000 1.01088
1.1950000 1.00890
1.2000000 1.00297
1.2050000 1.00396
1.2100000 1.00297
1.2150000 1.01187
1.2200000 1.01088
1.2250000 1.01088
1.2300000 1.01088
1.2350000 1.01088
1.2400000 1.01088
1.2450000 1.01484
1.2500000 1.01879
1.2550000 1.01879
1.2600000 1.01088
1.2650000 1.01088
1.2700000 1.01088
1.2750000 1.01682
1.2800000 1.02967
1.2850000 1.03066
1.2900000 1.02176
1.2950000 1.01780
1.3000000 1.01780
1.3050000 1.01780
1.3100000 1.02275
1.3150000 1.02770
1.3200000 1.02770
1.3250000 1.02572
1.3300000 1.02473
1.3350000 1.02275
1.3400000 1.01088
1.3450000 1.00396
1.3500000 1.00198
1.3550000 1.02770
1.3600000 1.04253
1.3650000 1.03956
1.3700000 1.02770
1.3750000 1.01682
1.3800000 1.02572
1.3850000 1.03264
1.3900000 1.04055
1.3950000 1.03858
1.4000000 1.03858
1.4050000 1.04055
1.4100000 1.03660
1.4150000 1.03264
1.4200000 1.03264
1.4250000 1.03858
1.4300000 1.04154
1.4350000 1.04748
1.4400000 1.04748
1.4450000 1.04748
1.4500000 1.04451
1.4550000 1.03956
1.4600000 1.04055
1.4650000 1.05045
1.4700000 1.05539
1.4750000 1.05935
1.4800000 1.06034
1.4850000 1.05935
1.4900000 1.05737
1.4950000 1.05539
1.5000000 1.05440
1.5050000 1.05440
1.5100000 1.05638
1.5150000 1.07319
1.5200000 1.08408
1.5250000 1.08309
1.5300000 1.08408
1.5350000 1.07517
1.5400000 1.07616
1.5450000 1.06924
1.5500000 1.07221
1.5550000 1.07616
1.5600000 1.08605
1.5650000 1.09298
1.5700000 1.09792
1.5750000 1.09792
1.5800000 1.09693
1.5850000 1.09001
1.5900000 1.09001
1.5950000 1.09496
1.6000000 1.09792
1.6050000 1.09891
1.6100000 1.10485
1.6150000 1.10979
1.6200000 1.11078
1.6250000 1.10485
1.6300000 1.10485
1.6350000 1.10485
1.6400000 1.10485
1.6450000 1.10485
1.6500000 1.10485
1.6550000 1.09891
1.6600000 1.09792
1.6650000 1.09792
1.6700000 1.09792
1.6750000 1.09792
1.6800000 1.09792
1.6850000 1.09792
1.6900000 1.09792
1.6950000 1.09792
1.7000000 1.09891
1.7050000 1.09100
1.7100000 1.09001
1.7150000 1.09891
1.7200000 1.10386
1.7250000 1.11276
1.7300000 1.11968
1.7350000 1.11375
1.7400000 1.11276
1.7450000 1.11276
1.7500000 1.11276
1.7550000 1.11276
1.7600000 1.11276
1.7650000 1.11573
1.7700000 1.11968
1.7750000 1.11474
1.7800000 1.10188
1.7850000 1.09990
1.7900000 1.10584
1.7950000 1.10485
1.8000000 1.10485
1.8050000 1.10584
1.8100000 1.10682
1.8150000 1.10781
1.8200000 1.09792
1.8250000 1.09792
1.8300000 1.11375
1.8350000 1.12859
1.8400000 1.12364
1.8450000 1.11771
1.8500000 1.10682
1.8550000 1.09792
1.8600000 1.09792
1.8650000 1.09891
1.8700000 1.11968
1.8750000 1.14045
1.8800000 1.12364
1.8850000 1.10584
1.8900000 1.10682
1.8950000 1.11177
1.9000000 1.12067
1.9050000 1.12364
1.9100000 1.12661
1.9150000 1.13551
1.9200000 1.13254
1.9250000 1.13353
1.9300000 1.13254
1.9350000 1.12067
1.9400000 1.12364
1.9450000 1.12661
1.9500000 1.13947
1.9550000 1.15232
1.9600000 1.15529
1.9650000 1.14342
1.9700000 1.14342
1.9750000 1.14837
1.9800000 1.14837
1.9850000 1.14738
1.9900000 1.13551
1.9950000 1.12067
2.0000000 1.12463
2.0050000 1.14540
2.0100000 1.15826
2.0150000 1.16320
2.0200000 1.16419
2.0250000 1.16815
2.0300000 1.17013
2.0350000 1.17112
2.0400000 1.16617
2.0450000 1.15134
2.0500000 1.15134
2.0550000 1.15925
2.0600000 1.16815
2.0650000 1.17606
2.0700000 1.17804
2.0750000 1.16617
2.0800000 1.16419
2.0850000 1.17112
2.0900000 1.17112
2.0950000 1.16320
2.1000000 1.16320
2.1050000 1.16320
2.1100000 1.17013
2.1150000 1.18595
2.1200000 1.19189
2.1250000 1.18497
2.1300000 1.19189
2.1350000 1.20376
2.1400000 1.20475
2.1450000 1.19486
2.1500000 1.18497
2.1550000 1.17606
2.1600000 1.19090
2.1650000 1.20870
2.1700000 1.21167
2.1750000 1.19881
2.1800000 1.19189
2.1850000 1.18497
2.1900000 1.19189
2.1950000 1.19189
2.2000000 1.19486
2.2050000 1.19980
2.2100000 1.19881
2.2150000 1.20277
2.2200000 1.19090
2.2250000 1.18299
2.2300000 1.19980
2.2350000 1.21365
2.2400000 1.20376
2.2450000 1.19980
2.2500000 1.20376
2.2550000 1.21167
2.2600000 1.23046
2.2650000 1.22849
2.2700000 1.20574
2.2750000 1.19486
2.2800000 1.18200
2.2850000 1.19881
2.2900000 1.22156
2.2950000 1.21958
2.3000000 1.21365
2.3050000 1.21365
2.3100000 1.21365
2.3150000 1.20969
2.3200000 1.19881
2.3250000 1.19980
2.3300000 1.19980
2.3350000 1.20277
2.3400000 1.21266
2.3450000 1.22453
2.3500000 1.21662
2.3550000 1.20673
2.3600000 1.20673
2.3650000 1.21464
2.3700000 1.22552
2.3750000 1.23541
2.3800000 1.22156
2.3850000 1.21464
2.3900000 1.19782
2.3950000 1.18299
2.4000000 1.18694
